Study Name	Eurofer_WELDS
Sample Name	2022-04-08
Run Name	spot0w_23p7C
Operator	Ben
Date	4/8/2022
Time	13:42
Sign	FIX
Grating Spacing	06.40um
Channel	3
Number Traces	10000
Files in Batch	1
Batch Number	1
dt	50.000001E-12
time stamp (ms)	13:42:19
	
Time	Amplitude
0.000000E+0	1.695821E-4
5.000000E-11	1.627303E-4
1.000000E-10	1.541655E-4
1.500000E-10	1.421749E-4
2.000000E-10	1.353231E-4
2.500000E-10	1.113418E-4
3.000000E-10	9.763815E-5
3.500000E-10	5.995325E-5
4.000000E-10	4.111080E-5
4.500000E-10	1.541655E-5
5.000000E-10	-8.564750E-6
5.500000E-10	1.712950E-5
6.000000E-10	2.912015E-5
6.500000E-10	5.652735E-5
7.000000E-10	3.083310E-5
7.500000E-10	-3.254605E-5
8.000000E-10	-7.708275E-5
8.500000E-10	-8.050865E-5
9.000000E-10	-9.421225E-5
9.500000E-10	-3.939785E-5
1.000000E-9	5.138850E-5
1.050000E-9	1.575914E-4
1.100000E-9	2.929145E-4
1.150000E-9	4.727742E-4
1.200000E-9	5.909678E-4
1.250000E-9	7.280038E-4
1.300000E-9	8.342067E-4
1.350000E-9	9.044376E-4
1.400000E-9	9.130024E-4
1.450000E-9	8.530491E-4
1.500000E-9	7.194390E-4
1.550000E-9	5.412922E-4
1.600000E-9	3.237476E-4
1.650000E-9	1.233324E-4
1.700000E-9	-3.768490E-5
1.750000E-9	-1.678691E-4
1.800000E-9	-2.175447E-4
1.850000E-9	-2.089799E-4
1.900000E-9	-1.301842E-4
1.950000E-9	-4.967555E-5
2.000000E-9	9.935110E-5
2.050000E-9	2.295353E-4
2.100000E-9	3.580066E-4
2.150000E-9	4.864778E-4
2.200000E-9	5.669865E-4
2.250000E-9	6.577728E-4
2.300000E-9	7.040225E-4
2.350000E-9	7.348556E-4
2.400000E-9	7.742534E-4
2.450000E-9	7.896700E-4
2.500000E-9	8.170772E-4
2.550000E-9	8.581880E-4
2.600000E-9	9.249930E-4
2.650000E-9	9.883722E-4
2.700000E-9	1.038048E-3
2.750000E-9	1.091149E-3
2.800000E-9	1.086010E-3
2.850000E-9	1.092862E-3
2.900000E-9	1.077446E-3
2.950000E-9	1.041474E-3
3.000000E-9	9.404096E-4
3.050000E-9	8.410585E-4
3.100000E-9	7.040225E-4
3.150000E-9	5.344404E-4
3.200000E-9	3.443030E-4
3.250000E-9	2.363871E-4
3.300000E-9	8.564750E-5
3.350000E-9	-6.337915E-5
3.400000E-9	-1.678691E-4
3.450000E-9	-2.672202E-4
3.500000E-9	-3.477289E-4
3.550000E-9	-4.556447E-4
3.600000E-9	-5.001814E-4
3.650000E-9	-5.738383E-4
3.700000E-9	-5.995325E-4
3.750000E-9	-6.063843E-4
3.800000E-9	-5.669865E-4
3.850000E-9	-4.881908E-4
3.900000E-9	-3.802749E-4
3.950000E-9	-2.774979E-4
4.000000E-9	-1.593044E-4
4.050000E-9	-5.310145E-5
4.100000E-9	5.310145E-5
4.150000E-9	1.387490E-4
4.200000E-9	1.575914E-4
4.250000E-9	1.130547E-4
4.300000E-9	-8.564750E-6
4.350000E-9	-1.199065E-4
4.400000E-9	-3.151828E-4
4.450000E-9	-5.430052E-4
4.500000E-9	-7.759664E-4
4.550000E-9	-9.232801E-4
4.600000E-9	-1.118556E-3
4.650000E-9	-1.284713E-3
4.700000E-9	-1.390915E-3
4.750000E-9	-1.456008E-3
4.800000E-9	-1.433739E-3
4.850000E-9	-1.385777E-3
4.900000E-9	-1.264157E-3
4.950000E-9	-1.132260E-3
5.000000E-9	-9.558261E-4
5.050000E-9	-7.399944E-4
5.100000E-9	-4.899037E-4
5.150000E-9	-2.278224E-4
5.200000E-9	-1.712950E-6
5.250000E-9	2.432389E-4
5.300000E-9	4.487929E-4
5.350000E-9	6.474951E-4
5.400000E-9	8.170772E-4
5.450000E-9	8.907340E-4
5.500000E-9	9.609650E-4
5.550000E-9	1.008928E-3
5.600000E-9	1.120269E-3
5.650000E-9	1.322397E-3
5.700000E-9	1.676978E-3
5.750000E-9	2.204567E-3
5.800000E-9	2.995950E-3
5.850000E-9	4.116219E-3
5.900000E-9	5.577365E-3
5.950000E-9	7.384528E-3
6.000000E-9	9.505160E-3
6.050000E-9	1.188959E-2
6.100000E-9	1.446072E-2
6.150000E-9	1.717232E-2
6.200000E-9	1.982568E-2
6.250000E-9	2.235914E-2
6.300000E-9	2.474356E-2
6.350000E-9	2.686248E-2
6.400000E-9	2.863881E-2
6.450000E-9	3.003487E-2
6.500000E-9	3.117398E-2
6.550000E-9	3.203217E-2
6.600000E-9	3.267624E-2
6.650000E-9	3.320040E-2
6.700000E-9	3.365947E-2
6.750000E-9	3.415794E-2
6.800000E-9	3.469409E-2
6.850000E-9	3.534330E-2
6.900000E-9	3.602848E-2
6.950000E-9	3.677875E-2
7.000000E-9	3.758726E-2
7.050000E-9	3.829985E-2
7.100000E-9	3.892165E-2
7.150000E-9	3.937044E-2
7.200000E-9	3.962910E-2
7.250000E-9	3.964280E-2
7.300000E-9	3.939443E-2
7.350000E-9	3.886855E-2
7.400000E-9	3.809944E-2
7.450000E-9	3.715731E-2
7.500000E-9	3.600621E-2
7.550000E-9	3.477460E-2
7.600000E-9	3.350016E-2
7.650000E-9	3.226170E-2
7.700000E-9	3.105065E-2
7.750000E-9	2.988070E-2
7.800000E-9	2.881696E-2
7.850000E-9	2.788854E-2
7.900000E-9	2.710058E-2
7.950000E-9	2.642225E-2
8.000000E-9	2.590494E-2
8.050000E-9	2.548013E-2
8.100000E-9	2.517865E-2
8.150000E-9	2.504162E-2
8.200000E-9	2.493028E-2
8.250000E-9	2.488403E-2
8.300000E-9	2.493713E-2
8.350000E-9	2.508615E-2
8.400000E-9	2.532083E-2
8.450000E-9	2.562059E-2
8.500000E-9	2.599744E-2
8.550000E-9	2.644281E-2
8.600000E-9	2.697382E-2
8.650000E-9	2.754766E-2
8.700000E-9	2.820372E-2
8.750000E-9	2.884265E-2
8.800000E-9	2.947644E-2
8.850000E-9	3.006741E-2
8.900000E-9	3.059671E-2
8.950000E-9	3.119111E-2
9.000000E-9	3.173754E-2
9.050000E-9	3.229425E-2
9.100000E-9	3.292633E-2
9.150000E-9	3.354127E-2
9.200000E-9	3.410655E-2
9.250000E-9	3.459817E-2
9.300000E-9	3.497673E-2
9.350000E-9	3.524566E-2
9.400000E-9	3.542381E-2
9.450000E-9	3.547177E-2
9.500000E-9	3.533816E-2
9.550000E-9	3.505724E-2
9.600000E-9	3.462043E-2
9.650000E-9	3.406544E-2
9.700000E-9	3.342822E-2
9.750000E-9	3.271563E-2
9.800000E-9	3.192425E-2
9.850000E-9	3.109347E-2
9.900000E-9	3.032435E-2
9.950000E-9	2.957066E-2
1.000000E-8	2.881353E-2
1.005000E-8	2.806669E-2
1.010000E-8	2.736266E-2
1.015000E-8	2.666378E-2
1.020000E-8	2.603170E-2
1.025000E-8	2.555893E-2
1.030000E-8	2.514953E-2
1.035000E-8	2.484977E-2
1.040000E-8	2.467847E-2
1.045000E-8	2.466648E-2
1.050000E-8	2.472815E-2
1.055000E-8	2.492514E-2
1.060000E-8	2.519578E-2
1.065000E-8	2.553666E-2
1.070000E-8	2.593920E-2
1.075000E-8	2.633318E-2
1.080000E-8	2.678711E-2
1.085000E-8	2.723248E-2
1.090000E-8	2.768127E-2
1.095000E-8	2.813520E-2
1.100000E-8	2.854631E-2
1.105000E-8	2.899682E-2
1.110000E-8	2.953297E-2
1.115000E-8	3.004343E-2
1.120000E-8	3.057787E-2
1.125000E-8	3.112602E-2
1.130000E-8	3.171013E-2
1.135000E-8	3.226855E-2
1.140000E-8	3.279443E-2
1.145000E-8	3.323637E-2
1.150000E-8	3.362864E-2
1.155000E-8	3.394896E-2
1.160000E-8	3.415109E-2
1.165000E-8	3.423673E-2
1.170000E-8	3.415451E-2
1.175000E-8	3.399349E-2
1.180000E-8	3.370058E-2
1.185000E-8	3.323123E-2
1.190000E-8	3.265911E-2
1.195000E-8	3.203045E-2
1.200000E-8	3.133500E-2
1.205000E-8	3.059500E-2
1.210000E-8	2.988755E-2
1.215000E-8	2.916126E-2
1.220000E-8	2.842641E-2
1.225000E-8	2.779090E-2
1.230000E-8	2.723248E-2
1.235000E-8	2.677855E-2
1.240000E-8	2.643253E-2
1.245000E-8	2.618929E-2
1.250000E-8	2.604541E-2
1.255000E-8	2.594434E-2
1.260000E-8	2.596318E-2
1.265000E-8	2.598545E-2
1.270000E-8	2.599573E-2
1.275000E-8	2.608652E-2
1.280000E-8	2.617730E-2
1.285000E-8	2.632633E-2
1.290000E-8	2.651647E-2
1.295000E-8	2.679225E-2
1.300000E-8	2.712799E-2
1.305000E-8	2.749970E-2
1.310000E-8	2.788511E-2
1.315000E-8	2.829280E-2
1.320000E-8	2.876728E-2
1.325000E-8	2.931543E-2
1.330000E-8	2.978820E-2
1.335000E-8	3.023871E-2
1.340000E-8	3.071319E-2
1.345000E-8	3.115514E-2
1.350000E-8	3.159365E-2
1.355000E-8	3.198592E-2
1.360000E-8	3.236277E-2
1.365000E-8	3.269336E-2
1.370000E-8	3.301026E-2
1.375000E-8	3.326549E-2
1.380000E-8	3.348303E-2
1.385000E-8	3.364576E-2
1.390000E-8	3.370401E-2
1.395000E-8	3.356697E-2
1.400000E-8	3.333915E-2
1.405000E-8	3.299998E-2
1.410000E-8	3.256661E-2
1.415000E-8	3.207156E-2
1.420000E-8	3.153027E-2
1.425000E-8	3.089134E-2
1.430000E-8	3.021986E-2
1.435000E-8	2.949529E-2
1.440000E-8	2.879126E-2
1.445000E-8	2.807696E-2
1.450000E-8	2.749285E-2
1.455000E-8	2.702693E-2
1.460000E-8	2.662610E-2
1.465000E-8	2.634688E-2
1.470000E-8	2.613619E-2
1.475000E-8	2.598545E-2
1.480000E-8	2.592721E-2
1.485000E-8	2.589638E-2
1.490000E-8	2.593064E-2
1.495000E-8	2.600429E-2
1.500000E-8	2.615503E-2
1.505000E-8	2.635374E-2
1.510000E-8	2.650105E-2
1.515000E-8	2.671859E-2
1.520000E-8	2.702007E-2
1.525000E-8	2.732669E-2
1.530000E-8	2.763331E-2
1.535000E-8	2.799988E-2
1.540000E-8	2.835789E-2
1.545000E-8	2.872617E-2
1.550000E-8	2.912529E-2
1.555000E-8	2.956894E-2
1.560000E-8	3.003487E-2
1.565000E-8	3.051449E-2
1.570000E-8	3.094616E-2
1.575000E-8	3.128361E-2
1.580000E-8	3.157481E-2
1.585000E-8	3.177180E-2
1.590000E-8	3.193624E-2
1.595000E-8	3.207328E-2
1.600000E-8	3.214522E-2
1.605000E-8	3.213837E-2
1.610000E-8	3.209897E-2
1.615000E-8	3.204416E-2
1.620000E-8	3.192082E-2
1.625000E-8	3.172041E-2
1.630000E-8	3.149944E-2
1.635000E-8	3.117398E-2
1.640000E-8	3.081597E-2
1.645000E-8	3.038260E-2
1.650000E-8	2.989783E-2
1.655000E-8	2.935654E-2
1.660000E-8	2.882724E-2
1.665000E-8	2.828423E-2
1.670000E-8	2.775150E-2
1.675000E-8	2.719993E-2
1.680000E-8	2.669119E-2
1.685000E-8	2.626638E-2
1.690000E-8	2.588953E-2
1.695000E-8	2.557606E-2
1.700000E-8	2.533282E-2
1.705000E-8	2.521462E-2
1.710000E-8	2.515467E-2
1.715000E-8	2.523004E-2
1.720000E-8	2.533111E-2
1.725000E-8	2.551097E-2
1.730000E-8	2.580217E-2
1.735000E-8	2.616531E-2
1.740000E-8	2.659526E-2
1.745000E-8	2.701665E-2
1.750000E-8	2.749799E-2
1.755000E-8	2.799132E-2
1.760000E-8	2.846238E-2
1.765000E-8	2.888719E-2
1.770000E-8	2.921779E-2
1.775000E-8	2.955353E-2
1.780000E-8	2.981561E-2
1.785000E-8	2.999033E-2
1.790000E-8	3.007769E-2
1.795000E-8	3.012051E-2
1.800000E-8	3.012565E-2
1.805000E-8	3.011366E-2
1.810000E-8	3.011366E-2
1.815000E-8	3.014107E-2
1.820000E-8	3.014963E-2
1.825000E-8	3.021815E-2
1.830000E-8	3.028667E-2
1.835000E-8	3.024042E-2
1.840000E-8	3.013936E-2
1.845000E-8	3.000403E-2
1.850000E-8	2.983616E-2
1.855000E-8	2.968029E-2
1.860000E-8	2.949871E-2
1.865000E-8	2.929658E-2
1.870000E-8	2.908760E-2
1.875000E-8	2.882552E-2
1.880000E-8	2.852576E-2
1.885000E-8	2.822085E-2
1.890000E-8	2.793650E-2
1.895000E-8	2.765387E-2
1.900000E-8	2.737294E-2
1.905000E-8	2.709031E-2
1.910000E-8	2.686248E-2
1.915000E-8	2.665522E-2
1.920000E-8	2.648221E-2
1.925000E-8	2.631776E-2
1.930000E-8	2.614818E-2
1.935000E-8	2.598717E-2
1.940000E-8	2.585527E-2
1.945000E-8	2.577476E-2
1.950000E-8	2.578504E-2
1.955000E-8	2.587754E-2
1.960000E-8	2.597689E-2
1.965000E-8	2.613619E-2
1.970000E-8	2.631434E-2
1.975000E-8	2.646850E-2
1.980000E-8	2.660897E-2
1.985000E-8	2.679739E-2
1.990000E-8	2.697040E-2
1.995000E-8	2.717424E-2
2.000000E-8	2.739521E-2
2.005000E-8	2.755451E-2
2.010000E-8	2.769498E-2
2.015000E-8	2.782345E-2
2.020000E-8	2.799817E-2
2.025000E-8	2.816090E-2
2.030000E-8	2.832363E-2
2.035000E-8	2.845895E-2
2.040000E-8	2.856173E-2
2.045000E-8	2.865080E-2
2.050000E-8	2.872103E-2
2.055000E-8	2.874673E-2
2.060000E-8	2.873645E-2
2.065000E-8	2.870904E-2
2.070000E-8	2.859085E-2
2.075000E-8	2.840585E-2
2.080000E-8	2.821743E-2
2.085000E-8	2.790053E-2
2.090000E-8	2.748257E-2
2.095000E-8	2.710572E-2
2.100000E-8	2.671859E-2
2.105000E-8	2.629892E-2
2.110000E-8	2.593064E-2
2.115000E-8	2.559833E-2
2.120000E-8	2.530370E-2
2.125000E-8	2.506217E-2
2.130000E-8	2.490972E-2
2.135000E-8	2.481893E-2
2.140000E-8	2.473500E-2
2.145000E-8	2.467676E-2
2.150000E-8	2.464250E-2
2.155000E-8	2.458940E-2
2.160000E-8	2.451917E-2
2.165000E-8	2.444208E-2
2.170000E-8	2.437357E-2
2.175000E-8	2.428449E-2
2.180000E-8	2.419199E-2
2.185000E-8	2.408236E-2
2.190000E-8	2.405667E-2
2.195000E-8	2.410463E-2
2.200000E-8	2.418857E-2
2.205000E-8	2.433588E-2
2.210000E-8	2.455171E-2
2.215000E-8	2.479153E-2
2.220000E-8	2.510328E-2
2.225000E-8	2.551782E-2
2.230000E-8	2.591693E-2
2.235000E-8	2.630064E-2
2.240000E-8	2.663637E-2
2.245000E-8	2.692415E-2
2.250000E-8	2.716054E-2
2.255000E-8	2.734725E-2
2.260000E-8	2.744317E-2
2.265000E-8	2.749799E-2
2.270000E-8	2.751683E-2
2.275000E-8	2.745174E-2
2.280000E-8	2.731128E-2
2.285000E-8	2.714512E-2
2.290000E-8	2.690359E-2
2.295000E-8	2.659869E-2
2.300000E-8	2.628864E-2
2.305000E-8	2.600601E-2
2.310000E-8	2.567712E-2
2.315000E-8	2.540476E-2
2.320000E-8	2.515467E-2
2.325000E-8	2.487717E-2
2.330000E-8	2.462708E-2
2.335000E-8	2.434616E-2
2.340000E-8	2.413375E-2
2.345000E-8	2.394362E-2
2.350000E-8	2.380658E-2
2.355000E-8	2.369866E-2
2.360000E-8	2.364728E-2
2.365000E-8	2.355478E-2
2.370000E-8	2.347255E-2
2.375000E-8	2.345714E-2
2.380000E-8	2.346228E-2
2.385000E-8	2.344343E-2
2.390000E-8	2.346913E-2
2.395000E-8	2.347769E-2
2.400000E-8	2.349140E-2
2.405000E-8	2.357362E-2
2.410000E-8	2.370552E-2
2.415000E-8	2.385968E-2
2.420000E-8	2.405324E-2
2.425000E-8	2.425537E-2
2.430000E-8	2.452431E-2
2.435000E-8	2.481379E-2
2.440000E-8	2.502106E-2
2.445000E-8	2.517180E-2
2.450000E-8	2.527800E-2
2.455000E-8	2.537736E-2
2.460000E-8	2.549726E-2
2.465000E-8	2.558462E-2
2.470000E-8	2.563430E-2
2.475000E-8	2.568397E-2
2.480000E-8	2.571309E-2
2.485000E-8	2.577133E-2
2.490000E-8	2.581587E-2
2.495000E-8	2.581758E-2
2.500000E-8	2.580902E-2
2.505000E-8	2.577990E-2
2.510000E-8	2.566684E-2
2.515000E-8	2.551268E-2
2.520000E-8	2.533453E-2
2.525000E-8	2.513412E-2
2.530000E-8	2.492342E-2
2.535000E-8	2.465620E-2
2.540000E-8	2.434787E-2
2.545000E-8	2.400871E-2
2.550000E-8	2.374834E-2
2.555000E-8	2.350681E-2
2.560000E-8	2.327899E-2
2.565000E-8	2.308029E-2
2.570000E-8	2.287645E-2
2.575000E-8	2.271029E-2
2.580000E-8	2.254242E-2
2.585000E-8	2.237455E-2
2.590000E-8	2.227692E-2
2.595000E-8	2.218270E-2
2.600000E-8	2.217414E-2
2.605000E-8	2.217585E-2
2.610000E-8	2.226492E-2
2.615000E-8	2.239853E-2
2.620000E-8	2.256298E-2
2.625000E-8	2.273085E-2
2.630000E-8	2.296552E-2
2.635000E-8	2.324302E-2
2.640000E-8	2.352394E-2
2.645000E-8	2.379630E-2
2.650000E-8	2.403612E-2
2.655000E-8	2.418857E-2
2.660000E-8	2.432389E-2
2.665000E-8	2.435644E-2
2.670000E-8	2.443009E-2
2.675000E-8	2.443523E-2
2.680000E-8	2.435986E-2
2.685000E-8	2.432389E-2
2.690000E-8	2.427764E-2
2.695000E-8	2.420570E-2
2.700000E-8	2.413204E-2
2.705000E-8	2.409436E-2
2.710000E-8	2.405496E-2
2.715000E-8	2.402412E-2
2.720000E-8	2.400357E-2
2.725000E-8	2.397616E-2
2.730000E-8	2.394019E-2
2.735000E-8	2.390251E-2
2.740000E-8	2.384940E-2
2.745000E-8	2.377061E-2
2.750000E-8	2.359589E-2
2.755000E-8	2.336293E-2
2.760000E-8	2.314196E-2
2.765000E-8	2.286788E-2
2.770000E-8	2.258867E-2
2.775000E-8	2.236770E-2
2.780000E-8	2.216043E-2
2.785000E-8	2.193261E-2
2.790000E-8	2.179900E-2
2.795000E-8	2.171678E-2
2.800000E-8	2.167910E-2
2.805000E-8	2.169280E-2
2.810000E-8	2.175275E-2
2.815000E-8	2.180757E-2
2.820000E-8	2.194632E-2
2.825000E-8	2.206108E-2
2.830000E-8	2.213131E-2
2.835000E-8	2.220155E-2
2.840000E-8	2.229062E-2
2.845000E-8	2.236256E-2
2.850000E-8	2.245678E-2
2.855000E-8	2.253557E-2
2.860000E-8	2.262293E-2
2.865000E-8	2.271543E-2
2.870000E-8	2.279594E-2
2.875000E-8	2.286446E-2
2.880000E-8	2.296210E-2
2.885000E-8	2.307858E-2
2.890000E-8	2.316422E-2
2.895000E-8	2.328413E-2
2.900000E-8	2.341774E-2
2.905000E-8	2.350339E-2
2.910000E-8	2.354279E-2
2.915000E-8	2.357533E-2
2.920000E-8	2.360103E-2
2.925000E-8	2.356677E-2
2.930000E-8	2.353422E-2
2.935000E-8	2.349825E-2
2.940000E-8	2.340404E-2
2.945000E-8	2.328070E-2
2.950000E-8	2.309399E-2
2.955000E-8	2.292612E-2
2.960000E-8	2.270344E-2
2.965000E-8	2.251159E-2
2.970000E-8	2.234543E-2
2.975000E-8	2.216215E-2
2.980000E-8	2.201826E-2
2.985000E-8	2.193090E-2
2.990000E-8	2.188636E-2
2.995000E-8	2.185896E-2
3.000000E-8	2.186409E-2
3.005000E-8	2.187951E-2
3.010000E-8	2.190521E-2
3.015000E-8	2.194632E-2
3.020000E-8	2.202854E-2
3.025000E-8	2.210048E-2
3.030000E-8	2.220668E-2
3.035000E-8	2.236256E-2
3.040000E-8	2.254756E-2
3.045000E-8	2.270344E-2
3.050000E-8	2.283705E-2
3.055000E-8	2.296895E-2
3.060000E-8	2.311797E-2
3.065000E-8	2.323103E-2
3.070000E-8	2.333381E-2
3.075000E-8	2.342117E-2
3.080000E-8	2.348112E-2
3.085000E-8	2.354964E-2
3.090000E-8	2.363186E-2
3.095000E-8	2.372436E-2
3.100000E-8	2.380829E-2
3.105000E-8	2.389223E-2
3.110000E-8	2.392477E-2
3.115000E-8	2.391450E-2
3.120000E-8	2.392477E-2
3.125000E-8	2.391963E-2
3.130000E-8	2.389051E-2
3.135000E-8	2.389565E-2
3.140000E-8	2.387338E-2
3.145000E-8	2.382200E-2
3.150000E-8	2.372265E-2
3.155000E-8	2.363357E-2
3.160000E-8	2.355478E-2
3.165000E-8	2.341089E-2
3.170000E-8	2.322075E-2
3.175000E-8	2.302547E-2
3.180000E-8	2.281992E-2
3.185000E-8	2.266404E-2
3.190000E-8	2.252701E-2
3.195000E-8	2.243451E-2
3.200000E-8	2.241738E-2
3.205000E-8	2.243622E-2
3.210000E-8	2.253043E-2
3.215000E-8	2.265205E-2
3.220000E-8	2.273941E-2
3.225000E-8	2.285589E-2
3.230000E-8	2.298436E-2
3.235000E-8	2.303404E-2
3.240000E-8	2.305802E-2
3.245000E-8	2.305973E-2
3.250000E-8	2.299464E-2
3.255000E-8	2.293126E-2
3.260000E-8	2.282163E-2
3.265000E-8	2.271029E-2
3.270000E-8	2.260751E-2
3.275000E-8	2.249789E-2
3.280000E-8	2.239682E-2
3.285000E-8	2.233344E-2
3.290000E-8	2.235571E-2
3.295000E-8	2.240196E-2
3.300000E-8	2.252872E-2
3.305000E-8	2.266404E-2
3.310000E-8	2.277025E-2
3.315000E-8	2.286617E-2
3.320000E-8	2.297751E-2
3.325000E-8	2.314881E-2
3.330000E-8	2.327043E-2
3.335000E-8	2.339205E-2
3.340000E-8	2.354621E-2
3.345000E-8	2.360788E-2
3.350000E-8	2.365927E-2
3.355000E-8	2.370380E-2
3.360000E-8	2.375177E-2
3.365000E-8	2.376718E-2
3.370000E-8	2.373977E-2
3.375000E-8	2.367468E-2
3.380000E-8	2.357019E-2
3.385000E-8	2.341260E-2
3.390000E-8	2.322418E-2
3.395000E-8	2.303918E-2
3.400000E-8	2.285932E-2
3.405000E-8	2.264006E-2
3.410000E-8	2.247390E-2
3.415000E-8	2.236256E-2
3.420000E-8	2.224437E-2
3.425000E-8	2.210905E-2
3.430000E-8	2.206794E-2
3.435000E-8	2.203025E-2
3.440000E-8	2.201997E-2
3.445000E-8	2.201655E-2
3.450000E-8	2.205423E-2
3.455000E-8	2.208678E-2
3.460000E-8	2.210391E-2
3.465000E-8	2.208507E-2
3.470000E-8	2.201483E-2
3.475000E-8	2.193604E-2
3.480000E-8	2.185896E-2
3.485000E-8	2.178701E-2
3.490000E-8	2.172706E-2
3.495000E-8	2.164484E-2
3.500000E-8	2.159687E-2
3.505000E-8	2.156262E-2
3.510000E-8	2.160201E-2
3.515000E-8	2.164141E-2
3.520000E-8	2.163285E-2
3.525000E-8	2.162599E-2
3.530000E-8	2.162428E-2
3.535000E-8	2.161229E-2
3.540000E-8	2.163285E-2
3.545000E-8	2.168252E-2
3.550000E-8	2.178016E-2
3.555000E-8	2.190178E-2
3.560000E-8	2.206108E-2
3.565000E-8	2.228034E-2
3.570000E-8	2.249960E-2
3.575000E-8	2.276168E-2
3.580000E-8	2.292955E-2
3.585000E-8	2.302205E-2
3.590000E-8	2.307858E-2
3.595000E-8	2.311797E-2
3.600000E-8	2.306830E-2
3.605000E-8	2.299464E-2
3.610000E-8	2.289358E-2
3.615000E-8	2.276682E-2
3.620000E-8	2.265890E-2
3.625000E-8	2.251502E-2
3.630000E-8	2.241395E-2
3.635000E-8	2.231974E-2
3.640000E-8	2.228548E-2
3.645000E-8	2.227863E-2
3.650000E-8	2.225465E-2
3.655000E-8	2.217243E-2
3.660000E-8	2.212618E-2
3.665000E-8	2.206451E-2
3.670000E-8	2.193604E-2
3.675000E-8	2.175789E-2
3.680000E-8	2.161058E-2
3.685000E-8	2.147012E-2
3.690000E-8	2.135706E-2
3.695000E-8	2.128340E-2
3.700000E-8	2.123887E-2
3.705000E-8	2.122174E-2
3.710000E-8	2.121831E-2
3.715000E-8	2.129540E-2
3.720000E-8	2.137419E-2
3.725000E-8	2.145813E-2
3.730000E-8	2.159174E-2
3.735000E-8	2.169451E-2
3.740000E-8	2.179215E-2
3.745000E-8	2.188636E-2
3.750000E-8	2.196002E-2
3.755000E-8	2.197544E-2
3.760000E-8	2.203539E-2
3.765000E-8	2.200284E-2
3.770000E-8	2.197544E-2
3.775000E-8	2.200627E-2
3.780000E-8	2.199770E-2
3.785000E-8	2.198571E-2
3.790000E-8	2.193604E-2
3.795000E-8	2.189664E-2
3.800000E-8	2.183669E-2
3.805000E-8	2.184354E-2
3.810000E-8	2.187780E-2
3.815000E-8	2.194118E-2
3.820000E-8	2.200970E-2
3.825000E-8	2.205252E-2
3.830000E-8	2.212104E-2
3.835000E-8	2.219298E-2
3.840000E-8	2.221525E-2
3.845000E-8	2.223067E-2
3.850000E-8	2.221011E-2
3.855000E-8	2.217243E-2
3.860000E-8	2.210219E-2
3.865000E-8	2.197544E-2
3.870000E-8	2.182470E-2
3.875000E-8	2.167567E-2
3.880000E-8	2.150609E-2
3.885000E-8	2.135364E-2
3.890000E-8	2.120461E-2
3.895000E-8	2.106415E-2
3.900000E-8	2.094424E-2
3.905000E-8	2.081063E-2
3.910000E-8	2.065304E-2
3.915000E-8	2.050915E-2
3.920000E-8	2.039781E-2
3.925000E-8	2.025563E-2
3.930000E-8	2.013059E-2
3.935000E-8	2.002096E-2
3.940000E-8	1.997642E-2
3.945000E-8	1.993874E-2
3.950000E-8	1.991304E-2
3.955000E-8	1.995587E-2
3.960000E-8	2.007749E-2
3.965000E-8	2.019054E-2
3.970000E-8	2.033272E-2
3.975000E-8	2.049031E-2
3.980000E-8	2.063077E-2
3.985000E-8	2.074040E-2
3.990000E-8	2.081748E-2
3.995000E-8	2.085859E-2
4.000000E-8	2.088771E-2
4.005000E-8	2.089970E-2
4.010000E-8	2.084832E-2
4.015000E-8	2.079350E-2
4.020000E-8	2.074725E-2
4.025000E-8	2.070100E-2
4.030000E-8	2.063077E-2
4.035000E-8	2.056054E-2
4.040000E-8	2.056397E-2
4.045000E-8	2.057253E-2
4.050000E-8	2.058795E-2
4.055000E-8	2.059994E-2
4.060000E-8	2.058109E-2
4.065000E-8	2.051772E-2
4.070000E-8	2.048003E-2
4.075000E-8	2.042693E-2
4.080000E-8	2.036526E-2
4.085000E-8	2.028475E-2
4.090000E-8	2.020082E-2
4.095000E-8	2.008948E-2
4.100000E-8	2.001582E-2
4.105000E-8	1.994216E-2
4.110000E-8	1.986851E-2
4.115000E-8	1.977087E-2
4.120000E-8	1.966124E-2
4.125000E-8	1.954476E-2
4.130000E-8	1.947110E-2
4.135000E-8	1.942657E-2
4.140000E-8	1.935634E-2
4.145000E-8	1.925870E-2
4.150000E-8	1.914050E-2
4.155000E-8	1.900689E-2
4.160000E-8	1.888185E-2
4.165000E-8	1.873967E-2
4.170000E-8	1.861120E-2
4.175000E-8	1.855981E-2
4.180000E-8	1.857694E-2
4.185000E-8	1.861805E-2
4.190000E-8	1.870370E-2
4.195000E-8	1.887157E-2
4.200000E-8	1.906856E-2
4.205000E-8	1.930152E-2
4.210000E-8	1.953791E-2
4.215000E-8	1.968522E-2
4.220000E-8	1.982055E-2
4.225000E-8	1.992332E-2
4.230000E-8	1.993017E-2
4.235000E-8	1.995929E-2
4.240000E-8	1.996443E-2
4.245000E-8	1.991476E-2
4.250000E-8	1.984110E-2
4.255000E-8	1.976744E-2
4.260000E-8	1.967152E-2
4.265000E-8	1.957388E-2
4.270000E-8	1.951735E-2
4.275000E-8	1.948481E-2
4.280000E-8	1.947624E-2
4.285000E-8	1.943684E-2
4.290000E-8	1.945911E-2
4.295000E-8	1.948823E-2
4.300000E-8	1.952763E-2
4.305000E-8	1.959444E-2
4.310000E-8	1.966809E-2
4.315000E-8	1.969550E-2
4.320000E-8	1.971092E-2
4.325000E-8	1.966981E-2
4.330000E-8	1.955846E-2
4.335000E-8	1.941286E-2
4.340000E-8	1.923985E-2
4.345000E-8	1.904972E-2
4.350000E-8	1.885273E-2
4.355000E-8	1.861463E-2
4.360000E-8	1.843306E-2
4.365000E-8	1.826690E-2
4.370000E-8	1.815213E-2
4.375000E-8	1.816241E-2
4.380000E-8	1.824634E-2
4.385000E-8	1.833028E-2
4.390000E-8	1.841764E-2
4.395000E-8	1.843991E-2
4.400000E-8	1.844333E-2
4.405000E-8	1.842449E-2
4.410000E-8	1.831486E-2
4.415000E-8	1.819667E-2
4.420000E-8	1.802195E-2
4.425000E-8	1.784723E-2
4.430000E-8	1.769820E-2
4.435000E-8	1.761427E-2
4.440000E-8	1.754403E-2
4.445000E-8	1.755089E-2
4.450000E-8	1.762112E-2
4.455000E-8	1.774102E-2
4.460000E-8	1.790033E-2
4.465000E-8	1.806991E-2
4.470000E-8	1.820523E-2
4.475000E-8	1.830801E-2
4.480000E-8	1.841593E-2
4.485000E-8	1.844162E-2
4.490000E-8	1.840565E-2
4.495000E-8	1.835597E-2
4.500000E-8	1.831657E-2
4.505000E-8	1.830287E-2
4.510000E-8	1.830972E-2
4.515000E-8	1.832514E-2
4.520000E-8	1.837824E-2
4.525000E-8	1.836796E-2
4.530000E-8	1.832685E-2
4.535000E-8	1.829945E-2
4.540000E-8	1.824463E-2
4.545000E-8	1.816926E-2
4.550000E-8	1.805107E-2
4.555000E-8	1.795857E-2
4.560000E-8	1.786778E-2
4.565000E-8	1.781982E-2
4.570000E-8	1.778385E-2
4.575000E-8	1.773417E-2
4.580000E-8	1.772903E-2
4.585000E-8	1.777700E-2
4.590000E-8	1.787292E-2
4.595000E-8	1.789862E-2
4.600000E-8	1.794315E-2
4.605000E-8	1.798084E-2
4.610000E-8	1.793459E-2
4.615000E-8	1.788662E-2
4.620000E-8	1.783352E-2
4.625000E-8	1.779755E-2
4.630000E-8	1.775130E-2
4.635000E-8	1.771533E-2
4.640000E-8	1.767422E-2
4.645000E-8	1.765366E-2
4.650000E-8	1.762112E-2
4.655000E-8	1.762112E-2
4.660000E-8	1.767079E-2
4.665000E-8	1.770676E-2
4.670000E-8	1.779584E-2
4.675000E-8	1.789176E-2
4.680000E-8	1.802537E-2
4.685000E-8	1.811787E-2
4.690000E-8	1.814699E-2
4.695000E-8	1.807676E-2
4.700000E-8	1.801338E-2
4.705000E-8	1.788834E-2
4.710000E-8	1.774616E-2
4.715000E-8	1.762797E-2
4.720000E-8	1.756288E-2
4.725000E-8	1.750464E-2
4.730000E-8	1.748922E-2
4.735000E-8	1.753547E-2
4.740000E-8	1.761084E-2
4.745000E-8	1.772047E-2
4.750000E-8	1.786436E-2
4.755000E-8	1.797227E-2
4.760000E-8	1.806477E-2
4.765000E-8	1.817611E-2
4.770000E-8	1.820523E-2
4.775000E-8	1.809903E-2
4.780000E-8	1.797570E-2
4.785000E-8	1.781468E-2
4.790000E-8	1.769135E-2
4.795000E-8	1.758001E-2
4.800000E-8	1.751320E-2
4.805000E-8	1.744468E-2
4.810000E-8	1.741728E-2
4.815000E-8	1.736589E-2
4.820000E-8	1.732478E-2
4.825000E-8	1.731279E-2
4.830000E-8	1.734019E-2
4.835000E-8	1.737103E-2
4.840000E-8	1.740700E-2
4.845000E-8	1.744982E-2
4.850000E-8	1.755945E-2
4.855000E-8	1.765880E-2
4.860000E-8	1.772218E-2
4.865000E-8	1.778899E-2
4.870000E-8	1.787292E-2
4.875000E-8	1.794486E-2
4.880000E-8	1.797912E-2
4.885000E-8	1.804935E-2
4.890000E-8	1.811273E-2
4.895000E-8	1.807847E-2
4.900000E-8	1.802023E-2
4.905000E-8	1.790547E-2
4.910000E-8	1.775644E-2
4.915000E-8	1.762454E-2
4.920000E-8	1.749607E-2
4.925000E-8	1.738987E-2
4.930000E-8	1.729394E-2
4.935000E-8	1.726482E-2
4.940000E-8	1.731793E-2
4.945000E-8	1.739329E-2
4.950000E-8	1.750978E-2
4.955000E-8	1.765538E-2
4.960000E-8	1.779755E-2
4.965000E-8	1.791574E-2
4.970000E-8	1.798255E-2
4.975000E-8	1.799797E-2
4.980000E-8	1.800311E-2
4.985000E-8	1.795857E-2
4.990000E-8	1.791403E-2
4.995000E-8	1.777357E-2
5.000000E-8	1.763311E-2
5.005000E-8	1.749093E-2
5.010000E-8	1.739843E-2
5.015000E-8	1.735732E-2
5.020000E-8	1.738644E-2
5.025000E-8	1.745325E-2
5.030000E-8	1.755603E-2
5.035000E-8	1.773588E-2
5.040000E-8	1.793459E-2
5.045000E-8	1.813672E-2
5.050000E-8	1.834570E-2
5.055000E-8	1.854097E-2
5.060000E-8	1.868315E-2
5.065000E-8	1.874481E-2
5.070000E-8	1.876879E-2
5.075000E-8	1.871741E-2
5.080000E-8	1.859236E-2
5.085000E-8	1.844333E-2
5.090000E-8	1.828574E-2
5.095000E-8	1.808019E-2
5.100000E-8	1.789176E-2
5.105000E-8	1.771190E-2
5.110000E-8	1.746866E-2
5.115000E-8	1.730251E-2
5.120000E-8	1.716376E-2
5.125000E-8	1.709010E-2
5.130000E-8	1.704214E-2
5.135000E-8	1.704728E-2
5.140000E-8	1.704385E-2
5.145000E-8	1.712779E-2
5.150000E-8	1.719631E-2
5.155000E-8	1.730251E-2
5.160000E-8	1.741728E-2
5.165000E-8	1.749093E-2
5.170000E-8	1.750978E-2
5.175000E-8	1.747209E-2
5.180000E-8	1.744640E-2
5.185000E-8	1.740357E-2
5.190000E-8	1.732478E-2
5.195000E-8	1.726311E-2
5.200000E-8	1.717918E-2
5.205000E-8	1.712094E-2
5.210000E-8	1.709182E-2
5.215000E-8	1.709182E-2
5.220000E-8	1.709353E-2
5.225000E-8	1.715519E-2
5.230000E-8	1.723742E-2
5.235000E-8	1.729737E-2
5.240000E-8	1.735732E-2
5.245000E-8	1.738644E-2
5.250000E-8	1.733334E-2
5.255000E-8	1.731107E-2
5.260000E-8	1.728024E-2
5.265000E-8	1.719459E-2
5.270000E-8	1.715177E-2
5.275000E-8	1.715006E-2
5.280000E-8	1.721344E-2
5.285000E-8	1.726140E-2
5.290000E-8	1.730593E-2
5.295000E-8	1.739843E-2
5.300000E-8	1.747209E-2
5.305000E-8	1.757315E-2
5.310000E-8	1.767764E-2
5.315000E-8	1.775301E-2
5.320000E-8	1.777871E-2
5.325000E-8	1.775644E-2
5.330000E-8	1.766565E-2
5.335000E-8	1.757658E-2
5.340000E-8	1.741899E-2
5.345000E-8	1.725797E-2
5.350000E-8	1.711237E-2
5.355000E-8	1.701302E-2
5.360000E-8	1.695307E-2
5.365000E-8	1.696677E-2
5.370000E-8	1.700103E-2
5.375000E-8	1.705927E-2
5.380000E-8	1.714149E-2
5.385000E-8	1.722714E-2
5.390000E-8	1.730593E-2
5.395000E-8	1.741899E-2
5.400000E-8	1.750635E-2
5.405000E-8	1.750635E-2
5.410000E-8	1.749607E-2
5.415000E-8	1.744811E-2
5.420000E-8	1.736075E-2
5.425000E-8	1.721515E-2
5.430000E-8	1.708325E-2
5.435000E-8	1.697876E-2
5.440000E-8	1.690168E-2
5.445000E-8	1.683830E-2
5.450000E-8	1.680918E-2
5.455000E-8	1.681432E-2
5.460000E-8	1.686228E-2
5.465000E-8	1.694793E-2
5.470000E-8	1.698561E-2
5.475000E-8	1.708496E-2
5.480000E-8	1.714663E-2
5.485000E-8	1.726482E-2
5.490000E-8	1.739329E-2
5.495000E-8	1.745667E-2
5.500000E-8	1.752519E-2
5.505000E-8	1.756116E-2
5.510000E-8	1.751663E-2
5.515000E-8	1.743269E-2
5.520000E-8	1.732478E-2
5.525000E-8	1.721857E-2
5.530000E-8	1.711066E-2
5.535000E-8	1.697362E-2
5.540000E-8	1.689997E-2
5.545000E-8	1.686742E-2
5.550000E-8	1.689483E-2
5.555000E-8	1.696677E-2
5.560000E-8	1.705927E-2
5.565000E-8	1.713121E-2
5.570000E-8	1.718089E-2
5.575000E-8	1.721686E-2
5.580000E-8	1.719288E-2
5.585000E-8	1.715006E-2
5.590000E-8	1.706098E-2
5.595000E-8	1.700788E-2
5.600000E-8	1.696163E-2
5.605000E-8	1.690510E-2
5.610000E-8	1.686228E-2
5.615000E-8	1.678177E-2
5.620000E-8	1.675779E-2
5.625000E-8	1.675608E-2
5.630000E-8	1.678691E-2
5.635000E-8	1.681603E-2
5.640000E-8	1.684515E-2
5.645000E-8	1.689825E-2
5.650000E-8	1.694279E-2
5.655000E-8	1.689825E-2
5.660000E-8	1.684001E-2
5.665000E-8	1.672867E-2
5.670000E-8	1.661219E-2
5.675000E-8	1.645974E-2
5.680000E-8	1.635525E-2
5.685000E-8	1.629529E-2
5.690000E-8	1.619423E-2
5.695000E-8	1.614455E-2
5.700000E-8	1.611886E-2
5.705000E-8	1.611201E-2
5.710000E-8	1.614284E-2
5.715000E-8	1.621821E-2
5.720000E-8	1.631071E-2
5.725000E-8	1.641177E-2
5.730000E-8	1.646659E-2
5.735000E-8	1.650256E-2
5.740000E-8	1.654538E-2
5.745000E-8	1.656594E-2
5.750000E-8	1.660020E-2
5.755000E-8	1.665159E-2
5.760000E-8	1.666872E-2
5.765000E-8	1.663960E-2
5.770000E-8	1.666529E-2
5.775000E-8	1.670298E-2
5.780000E-8	1.671325E-2
5.785000E-8	1.671325E-2
5.790000E-8	1.675779E-2
5.795000E-8	1.678348E-2
5.800000E-8	1.681603E-2
5.805000E-8	1.683487E-2
5.810000E-8	1.683830E-2
5.815000E-8	1.683487E-2
5.820000E-8	1.683659E-2
5.825000E-8	1.684515E-2
5.830000E-8	1.681089E-2
5.835000E-8	1.680747E-2
5.840000E-8	1.679890E-2
5.845000E-8	1.678177E-2
5.850000E-8	1.675950E-2
5.855000E-8	1.675950E-2
5.860000E-8	1.672867E-2
5.865000E-8	1.666358E-2
5.870000E-8	1.659506E-2
5.875000E-8	1.649913E-2
5.880000E-8	1.643233E-2
5.885000E-8	1.635011E-2
5.890000E-8	1.626103E-2
5.895000E-8	1.611030E-2
5.900000E-8	1.601608E-2
5.905000E-8	1.592016E-2
5.910000E-8	1.584650E-2
5.915000E-8	1.577113E-2
5.920000E-8	1.575914E-2
5.925000E-8	1.575229E-2
5.930000E-8	1.573002E-2
5.935000E-8	1.571803E-2
5.940000E-8	1.573002E-2
5.945000E-8	1.571632E-2
5.950000E-8	1.568034E-2
5.955000E-8	1.571460E-2
5.960000E-8	1.571974E-2
5.965000E-8	1.575743E-2
5.970000E-8	1.579169E-2
5.975000E-8	1.584479E-2
5.980000E-8	1.583280E-2
5.985000E-8	1.582595E-2
5.990000E-8	1.587733E-2
5.995000E-8	1.590474E-2
6.000000E-8	1.592872E-2
6.005000E-8	1.590817E-2
6.010000E-8	1.588590E-2
6.015000E-8	1.589618E-2
6.020000E-8	1.589618E-2
6.025000E-8	1.587048E-2
6.030000E-8	1.582595E-2
6.035000E-8	1.578483E-2
6.040000E-8	1.575571E-2
6.045000E-8	1.575743E-2
6.050000E-8	1.575914E-2
6.055000E-8	1.576942E-2
6.060000E-8	1.575914E-2
6.065000E-8	1.575400E-2
6.070000E-8	1.578141E-2
6.075000E-8	1.580196E-2
6.080000E-8	1.580710E-2
6.085000E-8	1.584479E-2
6.090000E-8	1.588247E-2
6.095000E-8	1.592872E-2
6.100000E-8	1.600409E-2
6.105000E-8	1.597155E-2
6.110000E-8	1.599039E-2
6.115000E-8	1.600581E-2
6.120000E-8	1.600067E-2
6.125000E-8	1.601094E-2
6.130000E-8	1.603321E-2
6.135000E-8	1.606576E-2
6.140000E-8	1.607775E-2
6.145000E-8	1.606576E-2
6.150000E-8	1.607604E-2
6.155000E-8	1.600409E-2
6.160000E-8	1.596983E-2
6.165000E-8	1.589618E-2
6.170000E-8	1.576599E-2
6.175000E-8	1.565465E-2
6.180000E-8	1.552447E-2
6.185000E-8	1.536859E-2
6.190000E-8	1.519044E-2
6.195000E-8	1.504484E-2
6.200000E-8	1.490095E-2
6.205000E-8	1.479818E-2
6.210000E-8	1.472281E-2
6.215000E-8	1.471595E-2
6.220000E-8	1.477419E-2
6.225000E-8	1.485984E-2
6.230000E-8	1.501915E-2
6.235000E-8	1.520757E-2
6.240000E-8	1.536687E-2
6.245000E-8	1.551419E-2
6.250000E-8	1.562553E-2
6.255000E-8	1.568034E-2
6.260000E-8	1.565294E-2
6.265000E-8	1.562210E-2
6.270000E-8	1.553303E-2
6.275000E-8	1.542340E-2
6.280000E-8	1.530692E-2
6.285000E-8	1.518188E-2
6.290000E-8	1.504998E-2
6.295000E-8	1.496091E-2
6.300000E-8	1.487526E-2
6.305000E-8	1.481188E-2
6.310000E-8	1.475021E-2
6.315000E-8	1.468683E-2
6.320000E-8	1.463545E-2
6.325000E-8	1.458577E-2
6.330000E-8	1.454466E-2
6.335000E-8	1.445216E-2
6.340000E-8	1.435281E-2
6.345000E-8	1.425346E-2
6.350000E-8	1.413526E-2
6.355000E-8	1.412499E-2
6.360000E-8	1.408559E-2
6.365000E-8	1.412841E-2
6.370000E-8	1.421063E-2
6.375000E-8	1.434424E-2
6.380000E-8	1.447614E-2
6.385000E-8	1.463202E-2
6.390000E-8	1.476563E-2
6.395000E-8	1.488896E-2
6.400000E-8	1.492322E-2
6.405000E-8	1.489753E-2
6.410000E-8	1.486155E-2
6.415000E-8	1.477077E-2
6.420000E-8	1.464230E-2
6.425000E-8	1.442304E-2
6.430000E-8	1.422091E-2
6.435000E-8	1.402392E-2
6.440000E-8	1.386976E-2
6.445000E-8	1.376698E-2
6.450000E-8	1.368476E-2
6.455000E-8	1.368647E-2
6.460000E-8	1.372416E-2
6.465000E-8	1.380980E-2
6.470000E-8	1.387147E-2
6.475000E-8	1.400508E-2
6.480000E-8	1.405818E-2
6.485000E-8	1.409415E-2
6.490000E-8	1.413526E-2
6.495000E-8	1.417980E-2
6.500000E-8	1.418837E-2
6.505000E-8	1.415925E-2
6.510000E-8	1.411300E-2
6.515000E-8	1.403420E-2
6.520000E-8	1.394170E-2
6.525000E-8	1.392800E-2
6.530000E-8	1.395198E-2
6.535000E-8	1.398624E-2
6.540000E-8	1.400851E-2
6.545000E-8	1.400508E-2
6.550000E-8	1.402221E-2
6.555000E-8	1.405133E-2
6.560000E-8	1.403763E-2
6.565000E-8	1.405304E-2
6.570000E-8	1.406675E-2
6.575000E-8	1.400679E-2
6.580000E-8	1.388517E-2
6.585000E-8	1.371902E-2
6.590000E-8	1.352203E-2
6.595000E-8	1.332846E-2
6.600000E-8	1.316060E-2
6.605000E-8	1.302013E-2
6.610000E-8	1.296018E-2
6.615000E-8	1.296189E-2
6.620000E-8	1.300643E-2
6.625000E-8	1.313661E-2
6.630000E-8	1.333532E-2
6.635000E-8	1.357684E-2
6.640000E-8	1.380980E-2
6.645000E-8	1.403420E-2
6.650000E-8	1.418665E-2
6.655000E-8	1.431512E-2
6.660000E-8	1.438707E-2
6.665000E-8	1.442647E-2
6.670000E-8	1.440762E-2
6.675000E-8	1.435281E-2
6.680000E-8	1.432198E-2
6.685000E-8	1.424661E-2
6.690000E-8	1.416781E-2
6.695000E-8	1.411642E-2
6.700000E-8	1.407017E-2
6.705000E-8	1.404105E-2
6.710000E-8	1.399651E-2
6.715000E-8	1.397596E-2
6.720000E-8	1.401022E-2
6.725000E-8	1.401536E-2
6.730000E-8	1.403763E-2
6.735000E-8	1.410100E-2
6.740000E-8	1.412156E-2
6.745000E-8	1.410100E-2
6.750000E-8	1.410614E-2
6.755000E-8	1.407531E-2
6.760000E-8	1.404276E-2
6.765000E-8	1.395883E-2
6.770000E-8	1.387147E-2
6.775000E-8	1.375156E-2
6.780000E-8	1.364022E-2
6.785000E-8	1.352203E-2
6.790000E-8	1.339184E-2
6.795000E-8	1.330620E-2
6.800000E-8	1.323939E-2
6.805000E-8	1.320171E-2
6.810000E-8	1.316745E-2
6.815000E-8	1.314518E-2
6.820000E-8	1.315032E-2
6.825000E-8	1.322740E-2
6.830000E-8	1.331990E-2
6.835000E-8	1.343467E-2
6.840000E-8	1.353744E-2
6.845000E-8	1.362309E-2
6.850000E-8	1.367105E-2
6.855000E-8	1.370703E-2
6.860000E-8	1.369504E-2
6.865000E-8	1.362652E-2
6.870000E-8	1.357513E-2
6.875000E-8	1.351175E-2
6.880000E-8	1.350490E-2
6.885000E-8	1.351689E-2
6.890000E-8	1.356656E-2
6.895000E-8	1.365564E-2
6.900000E-8	1.385434E-2
6.905000E-8	1.408388E-2
6.910000E-8	1.426202E-2
6.915000E-8	1.444531E-2
6.920000E-8	1.455665E-2
6.925000E-8	1.463887E-2
6.930000E-8	1.464572E-2
6.935000E-8	1.462517E-2
6.940000E-8	1.454466E-2
6.945000E-8	1.438022E-2
6.950000E-8	1.422262E-2
6.955000E-8	1.402906E-2
6.960000E-8	1.380295E-2
6.965000E-8	1.359911E-2
6.970000E-8	1.342268E-2
6.975000E-8	1.324282E-2
6.980000E-8	1.310235E-2
6.985000E-8	1.299615E-2
6.990000E-8	1.293106E-2
6.995000E-8	1.289851E-2
7.000000E-8	1.293791E-2
7.005000E-8	1.295333E-2
7.010000E-8	1.300129E-2
7.015000E-8	1.311777E-2
7.020000E-8	1.330448E-2
7.025000E-8	1.349291E-2
7.030000E-8	1.366934E-2
7.035000E-8	1.380638E-2
7.040000E-8	1.391429E-2
7.045000E-8	1.395712E-2
7.050000E-8	1.392971E-2
7.055000E-8	1.384235E-2
7.060000E-8	1.372416E-2
7.065000E-8	1.359568E-2
7.070000E-8	1.347064E-2
7.075000E-8	1.332333E-2
7.080000E-8	1.319999E-2
7.085000E-8	1.308009E-2
7.090000E-8	1.299958E-2
7.095000E-8	1.295847E-2
7.100000E-8	1.292592E-2
7.105000E-8	1.288652E-2
7.110000E-8	1.288995E-2
7.115000E-8	1.294990E-2
7.120000E-8	1.303726E-2
7.125000E-8	1.313490E-2
7.130000E-8	1.323425E-2
7.135000E-8	1.336786E-2
7.140000E-8	1.346893E-2
7.145000E-8	1.361453E-2
7.150000E-8	1.372587E-2
7.155000E-8	1.379610E-2
7.160000E-8	1.385263E-2
7.165000E-8	1.384406E-2
7.170000E-8	1.380466E-2
7.175000E-8	1.372587E-2
7.180000E-8	1.359226E-2
7.185000E-8	1.345008E-2
7.190000E-8	1.332675E-2
7.195000E-8	1.316573E-2
7.200000E-8	1.297388E-2
7.205000E-8	1.284199E-2
7.210000E-8	1.273578E-2
7.215000E-8	1.263986E-2
7.220000E-8	1.257134E-2
7.225000E-8	1.251824E-2
7.230000E-8	1.246856E-2
7.235000E-8	1.246685E-2
7.240000E-8	1.244801E-2
7.245000E-8	1.239319E-2
7.250000E-8	1.236750E-2
7.255000E-8	1.234694E-2
7.260000E-8	1.236579E-2
7.265000E-8	1.236065E-2
7.270000E-8	1.242060E-2
7.275000E-8	1.250796E-2
7.280000E-8	1.265185E-2
7.285000E-8	1.277004E-2
7.290000E-8	1.286597E-2
7.295000E-8	1.298074E-2
7.300000E-8	1.309208E-2
7.305000E-8	1.318800E-2
7.310000E-8	1.326680E-2
7.315000E-8	1.331305E-2
7.320000E-8	1.335416E-2
7.325000E-8	1.337129E-2
7.330000E-8	1.336615E-2
7.335000E-8	1.331990E-2
7.340000E-8	1.325823E-2
7.345000E-8	1.317944E-2
7.350000E-8	1.309893E-2
7.355000E-8	1.295162E-2
7.360000E-8	1.279060E-2
7.365000E-8	1.263643E-2
7.370000E-8	1.245829E-2
7.375000E-8	1.234523E-2
7.380000E-8	1.224759E-2
7.385000E-8	1.221505E-2
7.390000E-8	1.221847E-2
7.395000E-8	1.224074E-2
7.400000E-8	1.227671E-2
7.405000E-8	1.235037E-2
7.410000E-8	1.245143E-2
7.415000E-8	1.257305E-2
7.420000E-8	1.267754E-2
7.425000E-8	1.272379E-2
7.430000E-8	1.275291E-2
7.435000E-8	1.276662E-2
7.440000E-8	1.279574E-2
7.445000E-8	1.275805E-2
7.450000E-8	1.269467E-2
7.455000E-8	1.258504E-2
7.460000E-8	1.249768E-2
7.465000E-8	1.236236E-2
7.470000E-8	1.226644E-2
7.475000E-8	1.213625E-2
7.480000E-8	1.206945E-2
7.485000E-8	1.202834E-2
7.490000E-8	1.205232E-2
7.495000E-8	1.217051E-2
7.500000E-8	1.233838E-2
7.505000E-8	1.254222E-2
7.510000E-8	1.273921E-2
7.515000E-8	1.292935E-2
7.520000E-8	1.309036E-2
7.525000E-8	1.327194E-2
7.530000E-8	1.342610E-2
7.535000E-8	1.355971E-2
7.540000E-8	1.366078E-2
7.545000E-8	1.370874E-2
7.550000E-8	1.367962E-2
7.555000E-8	1.360082E-2
7.560000E-8	1.347235E-2
7.565000E-8	1.331305E-2
7.570000E-8	1.309722E-2
7.575000E-8	1.290365E-2
7.580000E-8	1.271523E-2
7.585000E-8	1.261074E-2
7.590000E-8	1.255592E-2
7.595000E-8	1.251824E-2
7.600000E-8	1.250796E-2
7.605000E-8	1.253194E-2
7.610000E-8	1.255764E-2
7.615000E-8	1.263643E-2
7.620000E-8	1.269981E-2
7.625000E-8	1.273407E-2
7.630000E-8	1.277004E-2
7.635000E-8	1.280601E-2
7.640000E-8	1.278889E-2
7.645000E-8	1.271865E-2
7.650000E-8	1.263815E-2
7.655000E-8	1.251653E-2
7.660000E-8	1.244801E-2
7.665000E-8	1.237949E-2
7.670000E-8	1.237606E-2
7.675000E-8	1.240005E-2
7.680000E-8	1.246000E-2
7.685000E-8	1.258676E-2
7.690000E-8	1.266384E-2
7.695000E-8	1.273407E-2
7.700000E-8	1.278717E-2
7.705000E-8	1.279574E-2
7.710000E-8	1.281458E-2
7.715000E-8	1.278546E-2
7.720000E-8	1.274606E-2
7.725000E-8	1.270495E-2
7.730000E-8	1.261759E-2
7.735000E-8	1.249254E-2
7.740000E-8	1.231611E-2
7.745000E-8	1.208486E-2
7.750000E-8	1.189815E-2
7.755000E-8	1.168403E-2
7.760000E-8	1.145964E-2
7.765000E-8	1.127464E-2
7.770000E-8	1.113931E-2
7.775000E-8	1.109649E-2
7.780000E-8	1.107594E-2
7.785000E-8	1.111705E-2
7.790000E-8	1.121811E-2
7.795000E-8	1.135857E-2
7.800000E-8	1.152987E-2
7.805000E-8	1.169088E-2
7.810000E-8	1.179195E-2
7.815000E-8	1.189986E-2
7.820000E-8	1.199922E-2
7.825000E-8	1.200778E-2
7.830000E-8	1.202662E-2
7.835000E-8	1.200778E-2
7.840000E-8	1.201634E-2
7.845000E-8	1.200607E-2
7.850000E-8	1.196667E-2
7.855000E-8	1.194611E-2
7.860000E-8	1.200093E-2
7.865000E-8	1.206602E-2
7.870000E-8	1.216366E-2
7.875000E-8	1.219278E-2
7.880000E-8	1.224931E-2
7.885000E-8	1.234352E-2
7.890000E-8	1.234181E-2
7.895000E-8	1.231954E-2
7.900000E-8	1.229042E-2
7.905000E-8	1.220820E-2
7.910000E-8	1.209343E-2
7.915000E-8	1.198209E-2
7.920000E-8	1.191357E-2
7.925000E-8	1.185361E-2
7.930000E-8	1.175426E-2
7.935000E-8	1.164977E-2
7.940000E-8	1.154186E-2
7.945000E-8	1.147677E-2
7.950000E-8	1.136371E-2
7.955000E-8	1.131917E-2
7.960000E-8	1.131061E-2
7.965000E-8	1.135343E-2
7.970000E-8	1.139797E-2
7.975000E-8	1.141167E-2
7.980000E-8	1.141681E-2
7.985000E-8	1.148533E-2
7.990000E-8	1.154871E-2
7.995000E-8	1.160352E-2
8.000000E-8	1.164977E-2
8.005000E-8	1.169431E-2
8.010000E-8	1.169602E-2
8.015000E-8	1.173199E-2
8.020000E-8	1.177139E-2
8.025000E-8	1.178852E-2
8.030000E-8	1.178681E-2
8.035000E-8	1.176625E-2
8.040000E-8	1.174741E-2
8.045000E-8	1.172000E-2
8.050000E-8	1.173371E-2
8.055000E-8	1.175084E-2
8.060000E-8	1.178681E-2
8.065000E-8	1.183135E-2
8.070000E-8	1.182278E-2
8.075000E-8	1.175255E-2
8.080000E-8	1.168917E-2
8.085000E-8	1.165149E-2
8.090000E-8	1.157612E-2
8.095000E-8	1.152130E-2
8.100000E-8	1.148190E-2
8.105000E-8	1.143223E-2
8.110000E-8	1.142538E-2
8.115000E-8	1.142709E-2
8.120000E-8	1.143223E-2
8.125000E-8	1.146135E-2
8.130000E-8	1.148362E-2
8.135000E-8	1.151445E-2
8.140000E-8	1.152644E-2
8.145000E-8	1.153843E-2
8.150000E-8	1.156584E-2
8.155000E-8	1.152987E-2
8.160000E-8	1.151102E-2
8.165000E-8	1.148876E-2
8.170000E-8	1.146477E-2
8.175000E-8	1.141510E-2
8.180000E-8	1.145964E-2
8.185000E-8	1.148876E-2
8.190000E-8	1.151788E-2
8.195000E-8	1.156070E-2
8.200000E-8	1.166862E-2
8.205000E-8	1.172686E-2
8.210000E-8	1.174912E-2
8.215000E-8	1.173542E-2
8.220000E-8	1.166176E-2
8.225000E-8	1.164292E-2
8.230000E-8	1.158468E-2
8.235000E-8	1.152987E-2
8.240000E-8	1.144593E-2
8.245000E-8	1.135857E-2
8.250000E-8	1.129177E-2
8.255000E-8	1.121640E-2
8.260000E-8	1.111019E-2
8.265000E-8	1.103996E-2
8.270000E-8	1.097145E-2
8.275000E-8	1.092862E-2
8.280000E-8	1.095260E-2
8.285000E-8	1.094918E-2
8.290000E-8	1.098344E-2
8.295000E-8	1.104681E-2
8.300000E-8	1.109478E-2
8.305000E-8	1.115473E-2
8.310000E-8	1.117357E-2
8.315000E-8	1.119242E-2
8.320000E-8	1.124209E-2
8.325000E-8	1.124380E-2
8.330000E-8	1.118385E-2
8.335000E-8	1.112218E-2
8.340000E-8	1.102112E-2
8.345000E-8	1.093719E-2
8.350000E-8	1.082242E-2
8.355000E-8	1.074191E-2
8.360000E-8	1.068367E-2
8.365000E-8	1.061515E-2
8.370000E-8	1.058603E-2
8.375000E-8	1.060145E-2
8.380000E-8	1.060487E-2
8.385000E-8	1.065969E-2
8.390000E-8	1.070422E-2
8.395000E-8	1.073335E-2
8.400000E-8	1.076247E-2
8.405000E-8	1.077617E-2
8.410000E-8	1.078473E-2
8.415000E-8	1.080700E-2
8.420000E-8	1.080871E-2
8.425000E-8	1.079672E-2
8.430000E-8	1.082413E-2
8.435000E-8	1.080700E-2
8.440000E-8	1.084811E-2
8.445000E-8	1.087552E-2
8.450000E-8	1.089608E-2
8.455000E-8	1.087895E-2
8.460000E-8	1.088066E-2
8.465000E-8	1.084469E-2
8.470000E-8	1.083441E-2
8.475000E-8	1.085496E-2
8.480000E-8	1.089608E-2
8.485000E-8	1.092520E-2
8.490000E-8	1.091320E-2
8.495000E-8	1.088408E-2
8.500000E-8	1.081557E-2
8.505000E-8	1.074362E-2
8.510000E-8	1.068710E-2
8.515000E-8	1.065969E-2
8.520000E-8	1.064427E-2
8.525000E-8	1.064085E-2
8.530000E-8	1.066825E-2
8.535000E-8	1.072649E-2
8.540000E-8	1.080529E-2
8.545000E-8	1.089094E-2
8.550000E-8	1.094232E-2
8.555000E-8	1.093719E-2
8.560000E-8	1.087381E-2
8.565000E-8	1.080529E-2
8.570000E-8	1.074020E-2
8.575000E-8	1.066825E-2
8.580000E-8	1.054321E-2
8.585000E-8	1.049182E-2
8.590000E-8	1.043015E-2
8.595000E-8	1.039932E-2
8.600000E-8	1.038904E-2
8.605000E-8	1.039076E-2
8.610000E-8	1.043700E-2
8.615000E-8	1.055691E-2
8.620000E-8	1.071108E-2
8.625000E-8	1.086524E-2
8.630000E-8	1.107251E-2
8.635000E-8	1.124894E-2
8.640000E-8	1.137741E-2
8.645000E-8	1.145964E-2
8.650000E-8	1.154871E-2
8.655000E-8	1.159496E-2
8.660000E-8	1.166348E-2
8.665000E-8	1.170459E-2
8.670000E-8	1.168403E-2
8.675000E-8	1.169260E-2
8.680000E-8	1.163950E-2
8.685000E-8	1.154871E-2
8.690000E-8	1.149732E-2
8.695000E-8	1.140996E-2
8.700000E-8	1.135001E-2
8.705000E-8	1.126779E-2
8.710000E-8	1.111876E-2
8.715000E-8	1.093547E-2
8.720000E-8	1.074362E-2
8.725000E-8	1.059973E-2
8.730000E-8	1.041816E-2
8.735000E-8	1.027599E-2
8.740000E-8	1.017321E-2
8.745000E-8	1.008071E-2
8.750000E-8	1.002418E-2
8.755000E-8	1.006701E-2
8.760000E-8	1.013895E-2
8.765000E-8	1.025201E-2
8.770000E-8	1.037363E-2
8.775000E-8	1.048839E-2
8.780000E-8	1.058774E-2
8.785000E-8	1.069737E-2
8.790000E-8	1.081557E-2
8.795000E-8	1.089436E-2
8.800000E-8	1.099029E-2
8.805000E-8	1.102969E-2
8.810000E-8	1.104168E-2
8.815000E-8	1.106223E-2
8.820000E-8	1.112047E-2
8.825000E-8	1.114445E-2
8.830000E-8	1.114788E-2
8.835000E-8	1.116843E-2
8.840000E-8	1.123695E-2
8.845000E-8	1.128491E-2
8.850000E-8	1.131575E-2
8.855000E-8	1.130547E-2
8.860000E-8	1.130204E-2
8.865000E-8	1.125579E-2
8.870000E-8	1.123353E-2
8.875000E-8	1.119584E-2
8.880000E-8	1.113418E-2
8.885000E-8	1.107594E-2
8.890000E-8	1.100570E-2
8.895000E-8	1.088922E-2
8.900000E-8	1.080529E-2
8.905000E-8	1.071450E-2
8.910000E-8	1.058432E-2
8.915000E-8	1.054492E-2
8.920000E-8	1.047812E-2
8.925000E-8	1.043700E-2
8.930000E-8	1.042330E-2
8.935000E-8	1.047126E-2
8.940000E-8	1.054321E-2
8.945000E-8	1.064770E-2
8.950000E-8	1.077788E-2
8.955000E-8	1.087209E-2
8.960000E-8	1.095603E-2
8.965000E-8	1.099543E-2
8.970000E-8	1.100228E-2
8.975000E-8	1.101941E-2
8.980000E-8	1.099029E-2
8.985000E-8	1.091320E-2
8.990000E-8	1.082927E-2
8.995000E-8	1.072649E-2
9.000000E-8	1.063571E-2
9.005000E-8	1.059117E-2
9.010000E-8	1.058432E-2
9.015000E-8	1.064427E-2
9.020000E-8	1.072649E-2
9.025000E-8	1.076760E-2
9.030000E-8	1.076589E-2
9.035000E-8	1.080529E-2
9.040000E-8	1.082413E-2
9.045000E-8	1.081214E-2
9.050000E-8	1.083955E-2
9.055000E-8	1.085668E-2
9.060000E-8	1.093547E-2
9.065000E-8	1.098001E-2
9.070000E-8	1.102969E-2
9.075000E-8	1.107251E-2
9.080000E-8	1.112732E-2
9.085000E-8	1.117015E-2
9.090000E-8	1.119927E-2
9.095000E-8	1.120783E-2
9.100000E-8	1.116843E-2
9.105000E-8	1.110506E-2
9.110000E-8	1.100570E-2
9.115000E-8	1.090293E-2
9.120000E-8	1.079159E-2
9.125000E-8	1.069737E-2
9.130000E-8	1.059802E-2
9.135000E-8	1.054663E-2
9.140000E-8	1.053293E-2
9.145000E-8	1.055520E-2
9.150000E-8	1.058089E-2
9.155000E-8	1.062714E-2
9.160000E-8	1.068196E-2
9.165000E-8	1.074020E-2
9.170000E-8	1.081043E-2
9.175000E-8	1.090121E-2
9.180000E-8	1.098857E-2
9.185000E-8	1.107594E-2
9.190000E-8	1.113931E-2
9.195000E-8	1.118385E-2
9.200000E-8	1.128320E-2
9.205000E-8	1.137228E-2
9.210000E-8	1.146306E-2
9.215000E-8	1.151616E-2
9.220000E-8	1.155042E-2
9.225000E-8	1.155727E-2
9.230000E-8	1.153329E-2
9.235000E-8	1.150760E-2
9.240000E-8	1.146477E-2
9.245000E-8	1.137741E-2
9.250000E-8	1.129177E-2
9.255000E-8	1.120098E-2
9.260000E-8	1.117357E-2
9.265000E-8	1.115130E-2
9.270000E-8	1.112218E-2
9.275000E-8	1.111533E-2
9.280000E-8	1.106737E-2
9.285000E-8	1.100570E-2
9.290000E-8	1.097316E-2
9.295000E-8	1.092348E-2
9.300000E-8	1.090121E-2
9.305000E-8	1.087038E-2
9.310000E-8	1.087209E-2
9.315000E-8	1.087895E-2
9.320000E-8	1.089608E-2
9.325000E-8	1.092691E-2
9.330000E-8	1.098857E-2
9.335000E-8	1.110506E-2
9.340000E-8	1.121982E-2
9.345000E-8	1.129862E-2
9.350000E-8	1.135686E-2
9.355000E-8	1.140311E-2
9.360000E-8	1.138940E-2
9.365000E-8	1.137741E-2
9.370000E-8	1.128663E-2
9.375000E-8	1.112904E-2
9.380000E-8	1.095945E-2
9.385000E-8	1.076760E-2
9.390000E-8	1.060316E-2
9.395000E-8	1.052437E-2
9.400000E-8	1.049867E-2
9.405000E-8	1.051066E-2
9.410000E-8	1.057747E-2
9.415000E-8	1.068710E-2
9.420000E-8	1.081214E-2
9.425000E-8	1.088751E-2
9.430000E-8	1.095774E-2
9.435000E-8	1.093376E-2
9.440000E-8	1.093376E-2
9.445000E-8	1.091663E-2
9.450000E-8	1.084297E-2
9.455000E-8	1.080871E-2
9.460000E-8	1.078987E-2
9.465000E-8	1.074705E-2
9.470000E-8	1.070765E-2
9.475000E-8	1.068710E-2
9.480000E-8	1.065455E-2
9.485000E-8	1.064256E-2
9.490000E-8	1.062886E-2
9.495000E-8	1.059288E-2
9.500000E-8	1.057404E-2
9.505000E-8	1.057061E-2
9.510000E-8	1.052437E-2
9.515000E-8	1.046270E-2
9.520000E-8	1.040446E-2
9.525000E-8	1.032566E-2
9.530000E-8	1.027427E-2
9.535000E-8	1.024687E-2
9.540000E-8	1.022631E-2
9.545000E-8	1.022117E-2
9.550000E-8	1.027599E-2
9.555000E-8	1.033937E-2
9.560000E-8	1.039418E-2
9.565000E-8	1.045756E-2
9.570000E-8	1.045756E-2
9.575000E-8	1.043358E-2
9.580000E-8	1.045585E-2
9.585000E-8	1.047126E-2
9.590000E-8	1.047469E-2
9.595000E-8	1.053807E-2
9.600000E-8	1.059973E-2
9.605000E-8	1.063057E-2
9.610000E-8	1.068367E-2
9.615000E-8	1.068710E-2
9.620000E-8	1.063913E-2
9.625000E-8	1.055177E-2
9.630000E-8	1.048668E-2
9.635000E-8	1.039076E-2
9.640000E-8	1.028969E-2
9.645000E-8	1.019205E-2
9.650000E-8	1.010983E-2
9.655000E-8	1.005330E-2
9.660000E-8	1.001562E-2
9.665000E-8	1.003104E-2
9.670000E-8	1.005502E-2
9.675000E-8	1.009099E-2
9.680000E-8	1.015608E-2
9.685000E-8	1.020233E-2
9.690000E-8	1.024858E-2
9.695000E-8	1.029997E-2
9.700000E-8	1.032052E-2
9.705000E-8	1.032909E-2
9.710000E-8	1.032052E-2
9.715000E-8	1.030682E-2
9.720000E-8	1.030511E-2
9.725000E-8	1.028113E-2
9.730000E-8	1.028798E-2
9.735000E-8	1.031710E-2
9.740000E-8	1.038562E-2
9.745000E-8	1.041988E-2
9.750000E-8	1.044557E-2
9.755000E-8	1.044900E-2
9.760000E-8	1.046612E-2
9.765000E-8	1.048839E-2
9.770000E-8	1.049011E-2
9.775000E-8	1.054663E-2
9.780000E-8	1.056890E-2
9.785000E-8	1.062029E-2
9.790000E-8	1.062714E-2
9.795000E-8	1.060830E-2
9.800000E-8	1.055862E-2
9.805000E-8	1.050210E-2
9.810000E-8	1.045927E-2
9.815000E-8	1.039761E-2
9.820000E-8	1.039761E-2
9.825000E-8	1.038390E-2
9.830000E-8	1.037363E-2
9.835000E-8	1.037876E-2
9.840000E-8	1.034279E-2
9.845000E-8	1.029312E-2
9.850000E-8	1.028455E-2
9.855000E-8	1.026571E-2
9.860000E-8	1.021432E-2
9.865000E-8	1.013553E-2
9.870000E-8	9.996777E-3
9.875000E-8	9.923120E-3
9.880000E-8	9.851176E-3
9.885000E-8	9.804926E-3
9.890000E-8	9.820343E-3
9.895000E-8	9.880296E-3
9.900000E-8	9.931684E-3
9.905000E-8	9.993351E-3
9.910000E-8	1.006701E-2
9.915000E-8	1.016978E-2
9.920000E-8	1.026742E-2
9.925000E-8	1.039247E-2
9.930000E-8	1.045242E-2
9.935000E-8	1.046784E-2
9.940000E-8	1.046955E-2
9.945000E-8	1.042330E-2
9.950000E-8	1.035992E-2
9.955000E-8	1.029140E-2
9.960000E-8	1.020233E-2
9.965000E-8	1.015094E-2
9.970000E-8	1.008071E-2
9.975000E-8	1.010983E-2
9.980000E-8	1.016293E-2
9.985000E-8	1.023830E-2
9.990000E-8	1.031710E-2
9.995000E-8	1.042330E-2
1.000000E-7	1.055691E-2
1.000500E-7	1.066311E-2
1.001000E-7	1.070765E-2
1.001500E-7	1.068538E-2
1.002000E-7	1.065455E-2
1.002500E-7	1.059460E-2
1.003000E-7	1.049524E-2
1.003500E-7	1.031367E-2
1.004000E-7	1.008242E-2
1.004500E-7	9.830620E-3
1.005000E-7	9.585668E-3
1.005500E-7	9.386966E-3
1.006000E-7	9.246504E-3
1.006500E-7	9.124885E-3
1.007000E-7	9.042663E-3
1.007500E-7	9.035812E-3
1.008000E-7	9.083774E-3
1.008500E-7	9.147153E-3
1.009000E-7	9.251643E-3
1.009500E-7	9.371550E-3
1.010000E-7	9.561687E-3
1.010500E-7	9.702149E-3
1.011000E-7	9.846037E-3
1.011500E-7	9.965943E-3
1.012000E-7	1.005502E-2
1.012500E-7	1.007557E-2
1.013000E-7	1.007557E-2
1.013500E-7	1.004303E-2
1.014000E-7	9.945388E-3
1.014500E-7	9.806639E-3
1.015000E-7	9.685020E-3
1.015500E-7	9.590807E-3
1.016000E-7	9.506873E-3
1.016500E-7	9.434929E-3
1.017000E-7	9.419512E-3
1.017500E-7	9.462336E-3
1.018000E-7	9.535993E-3
1.018500E-7	9.573678E-3
1.019000E-7	9.625066E-3
1.019500E-7	9.652474E-3
1.020000E-7	9.638770E-3
1.020500E-7	9.594233E-3
1.021000E-7	9.520576E-3
1.021500E-7	9.400670E-3
1.022000E-7	9.249930E-3
1.022500E-7	9.099191E-3
1.023000E-7	8.965581E-3
1.023500E-7	8.847387E-3
1.024000E-7	8.761740E-3
1.024500E-7	8.734332E-3
1.025000E-7	8.773730E-3
1.025500E-7	8.871368E-3
1.026000E-7	8.991275E-3
1.026500E-7	9.107755E-3
1.027000E-7	9.256782E-3
1.027500E-7	9.392105E-3
1.028000E-7	9.534280E-3
1.028500E-7	9.597659E-3
1.029000E-7	9.649048E-3
1.029500E-7	9.676455E-3
1.030000E-7	9.691871E-3
1.030500E-7	9.688445E-3
1.031000E-7	9.669603E-3
1.031500E-7	9.678168E-3
1.032000E-7	9.743260E-3
1.032500E-7	9.774093E-3
1.033000E-7	9.834046E-3
1.033500E-7	9.924833E-3
1.034000E-7	9.967656E-3
1.034500E-7	1.000877E-2
1.035000E-7	1.006016E-2
1.035500E-7	1.004817E-2
1.036000E-7	9.993351E-3
1.036500E-7	9.941962E-3
1.037000E-7	9.863166E-3
1.037500E-7	9.755251E-3
1.038000E-7	9.652474E-3
1.038500E-7	9.563400E-3
1.039000E-7	9.527428E-3
1.039500E-7	9.481179E-3
1.040000E-7	9.464049E-3
1.040500E-7	9.438355E-3
1.041000E-7	9.457197E-3
1.041500E-7	9.455484E-3
1.042000E-7	9.407522E-3
1.042500E-7	9.361272E-3
1.043000E-7	9.304745E-3
1.043500E-7	9.210532E-3
1.044000E-7	9.145440E-3
1.044500E-7	9.066645E-3
1.045000E-7	8.953590E-3
1.045500E-7	8.893637E-3
1.046000E-7	8.857665E-3
1.046500E-7	8.843961E-3
1.047000E-7	8.828545E-3
1.047500E-7	8.835396E-3
1.048000E-7	8.871368E-3
1.048500E-7	8.910766E-3
1.049000E-7	8.941599E-3
1.049500E-7	8.946738E-3
1.050000E-7	8.934747E-3
1.050500E-7	8.970719E-3
1.051000E-7	9.042663E-3
1.051500E-7	9.085487E-3
1.052000E-7	9.135163E-3
1.052500E-7	9.219097E-3
1.053000E-7	9.304745E-3
1.053500E-7	9.409235E-3
1.054000E-7	9.501734E-3
1.054500E-7	9.590807E-3
1.055000E-7	9.767241E-3
1.055500E-7	9.950527E-3
1.056000E-7	1.008242E-2
1.056500E-7	1.021090E-2
1.057000E-7	1.025543E-2
1.057500E-7	1.031710E-2
1.058000E-7	1.029826E-2
1.058500E-7	1.026571E-2
1.059000E-7	1.022117E-2
1.059500E-7	1.014066E-2
1.060000E-7	1.004817E-2
1.060500E-7	9.900851E-3
1.061000E-7	9.738121E-3
1.061500E-7	9.553122E-3
1.062000E-7	9.357846E-3
1.062500E-7	9.138589E-3
1.063000E-7	8.948451E-3
1.063500E-7	8.753175E-3
1.064000E-7	8.588732E-3
1.064500E-7	8.479103E-3
1.065000E-7	8.434566E-3
1.065500E-7	8.444844E-3
1.066000E-7	8.468825E-3
1.066500E-7	8.554473E-3
1.067000E-7	8.672666E-3
1.067500E-7	8.790860E-3
1.068000E-7	8.945025E-3
1.068500E-7	9.102617E-3
1.069000E-7	9.237940E-3
1.069500E-7	9.356133E-3
1.070000E-7	9.397244E-3
1.070500E-7	9.400670E-3
1.071000E-7	9.349281E-3
1.071500E-7	9.243078E-3
1.072000E-7	9.142014E-3
1.072500E-7	9.059793E-3
1.073000E-7	8.996414E-3
1.073500E-7	8.969006E-3
1.074000E-7	8.986136E-3
1.074500E-7	9.078635E-3
1.075000E-7	9.232801E-3
1.075500E-7	9.347568E-3
1.076000E-7	9.534280E-3
1.076500E-7	9.726130E-3
1.077000E-7	9.873444E-3
1.077500E-7	1.003446E-2
1.078000E-7	1.017664E-2
1.078500E-7	1.020747E-2
1.079000E-7	1.017664E-2
1.079500E-7	1.015437E-2
1.080000E-7	1.007729E-2
1.080500E-7	1.001219E-2
1.081000E-7	9.943675E-3
1.081500E-7	9.851176E-3
1.082000E-7	9.741547E-3
1.082500E-7	9.678168E-3
1.083000E-7	9.565113E-3
1.083500E-7	9.486317E-3
1.084000E-7	9.433216E-3
1.084500E-7	9.344143E-3
1.085000E-7	9.284189E-3
1.085500E-7	9.243078E-3
1.086000E-7	9.143727E-3
1.086500E-7	9.056367E-3
1.087000E-7	9.008404E-3
1.087500E-7	8.953590E-3
1.088000E-7	8.943312E-3
1.088500E-7	8.941599E-3
1.089000E-7	8.963868E-3
1.089500E-7	8.977571E-3
1.090000E-7	9.044376E-3
1.090500E-7	9.071783E-3
1.091000E-7	9.111181E-3
1.091500E-7	9.128311E-3
1.092000E-7	9.198542E-3
1.092500E-7	9.256782E-3
1.093000E-7	9.321874E-3
1.093500E-7	9.352707E-3
1.094000E-7	9.409235E-3
1.094500E-7	9.470901E-3
1.095000E-7	9.517150E-3
1.095500E-7	9.573678E-3
1.096000E-7	9.597659E-3
1.096500E-7	9.664464E-3
1.097000E-7	9.729556E-3
1.097500E-7	9.820343E-3
1.098000E-7	9.847750E-3
1.098500E-7	9.916268E-3
1.099000E-7	9.912842E-3
1.099500E-7	9.839185E-3
1.100000E-7	9.748399E-3
1.100500E-7	9.597659E-3
1.101000E-7	9.378402E-3
1.101500E-7	9.145440E-3
1.102000E-7	8.922757E-3
1.102500E-7	8.720629E-3
1.103000E-7	8.575028E-3
1.103500E-7	8.426001E-3
1.104000E-7	8.366048E-3
1.104500E-7	8.371187E-3
1.105000E-7	8.463686E-3
1.105500E-7	8.605861E-3
1.106000E-7	8.790860E-3
1.106500E-7	8.986136E-3
1.107000E-7	9.157431E-3
1.107500E-7	9.282476E-3
1.108000E-7	9.328726E-3
1.108500E-7	9.294467E-3
1.109000E-7	9.188264E-3
1.109500E-7	9.051228E-3
1.110000E-7	8.855952E-3
1.110500E-7	8.629842E-3
1.111000E-7	8.410585E-3
1.111500E-7	8.203318E-3
1.112000E-7	8.054291E-3
1.112500E-7	8.044013E-3
1.113000E-7	8.086837E-3
1.113500E-7	8.237577E-3
1.114000E-7	8.429427E-3
1.114500E-7	8.648685E-3
1.115000E-7	8.893637E-3
1.115500E-7	9.155718E-3
1.116000E-7	9.412661E-3
1.116500E-7	9.595946E-3
1.117000E-7	9.743260E-3
1.117500E-7	9.777519E-3
1.118000E-7	9.786084E-3
1.118500E-7	9.700436E-3
1.119000E-7	9.575391E-3
1.119500E-7	9.386966E-3
1.120000E-7	9.176273E-3
1.120500E-7	8.977571E-3
1.121000E-7	8.751462E-3
1.121500E-7	8.539056E-3
1.122000E-7	8.372900E-3
1.122500E-7	8.235864E-3
1.123000E-7	8.165633E-3
1.123500E-7	8.158781E-3
1.124000E-7	8.169059E-3
1.124500E-7	8.194753E-3
1.125000E-7	8.258132E-3
1.125500E-7	8.321511E-3
1.126000E-7	8.383178E-3
1.126500E-7	8.427714E-3
1.127000E-7	8.479103E-3
1.127500E-7	8.547621E-3
1.128000E-7	8.602435E-3
1.128500E-7	8.652111E-3
1.129000E-7	8.686370E-3
1.129500E-7	8.703499E-3
1.130000E-7	8.708638E-3
1.130500E-7	8.696647E-3
1.131000E-7	8.701786E-3
1.131500E-7	8.636694E-3
1.132000E-7	8.537343E-3
1.132500E-7	8.432853E-3
1.133000E-7	8.352344E-3
1.133500E-7	8.307808E-3
1.134000E-7	8.302669E-3
1.134500E-7	8.342067E-3
1.135000E-7	8.376326E-3
1.135500E-7	8.467112E-3
1.136000E-7	8.600722E-3
1.136500E-7	8.730906E-3
1.137000E-7	8.790860E-3
1.137500E-7	8.847387E-3
1.138000E-7	8.830258E-3
1.138500E-7	8.801137E-3
1.139000E-7	8.718916E-3
1.139500E-7	8.624704E-3
1.140000E-7	8.491093E-3
1.140500E-7	8.412298E-3
1.141000E-7	8.347206E-3
1.141500E-7	8.283826E-3
1.142000E-7	8.282114E-3
1.142500E-7	8.312947E-3
1.143000E-7	8.355770E-3
1.143500E-7	8.431140E-3
1.144000E-7	8.556186E-3
1.144500E-7	8.592157E-3
1.145000E-7	8.645259E-3
1.145500E-7	8.617852E-3
1.146000E-7	8.547621E-3
1.146500E-7	8.426001E-3
1.147000E-7	8.302669E-3
1.147500E-7	8.146790E-3
1.148000E-7	8.037162E-3
1.148500E-7	7.992625E-3
1.149000E-7	7.937811E-3
1.149500E-7	7.982347E-3
1.150000E-7	8.057717E-3
1.150500E-7	8.136513E-3
1.151000E-7	8.227299E-3
1.151500E-7	8.306095E-3
1.152000E-7	8.381465E-3
1.152500E-7	8.453409E-3
1.153000E-7	8.467112E-3
1.153500E-7	8.458547E-3
1.154000E-7	8.453409E-3
1.154500E-7	8.407159E-3
1.155000E-7	8.414011E-3
1.155500E-7	8.414011E-3
1.156000E-7	8.366048E-3
1.156500E-7	8.323224E-3
1.157000E-7	8.263271E-3
1.157500E-7	8.218734E-3
1.158000E-7	8.172485E-3
1.158500E-7	8.103967E-3
1.159000E-7	8.042300E-3
1.159500E-7	8.016606E-3
1.160000E-7	8.026884E-3
1.160500E-7	8.042300E-3
1.161000E-7	8.107393E-3
1.161500E-7	8.270123E-3
1.162000E-7	8.437992E-3
1.162500E-7	8.628129E-3
1.163000E-7	8.797711E-3
1.163500E-7	8.909053E-3
1.164000E-7	8.962155E-3
1.164500E-7	8.939886E-3
1.165000E-7	8.838822E-3
1.165500E-7	8.708638E-3
1.166000E-7	8.501371E-3
1.166500E-7	8.266697E-3
1.167000E-7	8.016606E-3
1.167500E-7	7.751099E-3
1.168000E-7	7.540406E-3
1.168500E-7	7.420500E-3
1.169000E-7	7.310871E-3
1.169500E-7	7.292028E-3
1.170000E-7	7.314297E-3
1.170500E-7	7.391379E-3
1.171000E-7	7.518138E-3
1.171500E-7	7.638044E-3
1.172000E-7	7.751099E-3
1.172500E-7	7.847024E-3
1.173000E-7	7.903552E-3
1.173500E-7	7.929246E-3
1.174000E-7	7.927533E-3
1.174500E-7	7.857302E-3
1.175000E-7	7.764803E-3
1.175500E-7	7.713414E-3
1.176000E-7	7.619202E-3
1.176500E-7	7.566100E-3
1.177000E-7	7.530128E-3
1.177500E-7	7.504434E-3
1.178000E-7	7.483879E-3
1.178500E-7	7.485592E-3
1.179000E-7	7.492444E-3
1.179500E-7	7.519851E-3
1.180000E-7	7.552397E-3
1.180500E-7	7.614063E-3
1.181000E-7	7.655174E-3
1.181500E-7	7.737395E-3
1.182000E-7	7.805913E-3
1.182500E-7	7.891561E-3
1.183000E-7	7.934385E-3
1.183500E-7	7.970357E-3
1.184000E-7	7.973782E-3
1.184500E-7	7.924107E-3
1.185000E-7	7.857302E-3
1.185500E-7	7.771654E-3
1.186000E-7	7.670590E-3
1.186500E-7	7.526703E-3
1.187000E-7	7.441055E-3
1.187500E-7	7.357120E-3
1.188000E-7	7.264621E-3
1.188500E-7	7.196103E-3
1.189000E-7	7.091613E-3
1.189500E-7	7.002540E-3
1.190000E-7	6.969994E-3
1.190500E-7	6.934022E-3
1.191000E-7	6.880920E-3
1.191500E-7	6.898050E-3
1.192000E-7	6.975133E-3
1.192500E-7	7.137863E-3
1.193000E-7	7.286890E-3
1.193500E-7	7.480453E-3
1.194000E-7	7.639757E-3
1.194500E-7	7.795636E-3
1.195000E-7	7.891561E-3
1.195500E-7	7.968644E-3
1.196000E-7	7.985773E-3
1.196500E-7	8.009754E-3
1.197000E-7	7.973782E-3
1.197500E-7	7.920681E-3
1.198000E-7	7.816191E-3
1.198500E-7	7.694572E-3
1.199000E-7	7.569526E-3
1.199500E-7	7.449620E-3
1.200000E-7	7.353695E-3
1.200500E-7	7.266334E-3
1.201000E-7	7.209807E-3
1.201500E-7	7.220084E-3
1.202000E-7	7.268047E-3
1.202500E-7	7.343417E-3
1.203000E-7	7.422213E-3
1.203500E-7	7.489018E-3
1.204000E-7	7.547258E-3
1.204500E-7	7.567813E-3
1.205000E-7	7.574665E-3
1.205500E-7	7.518138E-3
1.206000E-7	7.447907E-3
1.206500E-7	7.375963E-3
1.207000E-7	7.280038E-3
1.207500E-7	7.192677E-3
1.208000E-7	7.134437E-3
1.208500E-7	7.060780E-3
1.209000E-7	7.004253E-3
1.209500E-7	6.968281E-3
1.210000E-7	6.992262E-3
1.210500E-7	7.019669E-3
1.211000E-7	7.064206E-3
1.211500E-7	7.112169E-3
1.212000E-7	7.192677E-3
1.212500E-7	7.266334E-3
1.213000E-7	7.346843E-3
1.213500E-7	7.420500E-3
1.214000E-7	7.478740E-3
1.214500E-7	7.519851E-3
1.215000E-7	7.511286E-3
1.215500E-7	7.485592E-3
1.216000E-7	7.423926E-3
1.216500E-7	7.360546E-3
1.217000E-7	7.293741E-3
1.217500E-7	7.240640E-3
1.218000E-7	7.182400E-3
1.218500E-7	7.107030E-3
1.219000E-7	7.041938E-3
1.219500E-7	7.017956E-3
1.220000E-7	6.958003E-3
1.220500E-7	6.889485E-3
1.221000E-7	6.826106E-3
1.221500E-7	6.781569E-3
1.222000E-7	6.778143E-3
1.222500E-7	6.781569E-3
1.223000E-7	6.788421E-3
1.223500E-7	6.798699E-3
1.224000E-7	6.815828E-3
1.224500E-7	6.851800E-3
1.225000E-7	6.903189E-3
1.225500E-7	6.961429E-3
1.226000E-7	7.028234E-3
1.226500E-7	7.122446E-3
1.227000E-7	7.175548E-3
1.227500E-7	7.182400E-3
1.228000E-7	7.199529E-3
1.228500E-7	7.228649E-3
1.229000E-7	7.187538E-3
1.229500E-7	7.177261E-3
1.230000E-7	7.146428E-3
1.230500E-7	7.151566E-3
1.231000E-7	7.134437E-3
1.231500E-7	7.144715E-3
1.232000E-7	7.156705E-3
1.232500E-7	7.144715E-3
1.233000E-7	7.132724E-3
1.233500E-7	7.107030E-3
1.234000E-7	7.107030E-3
1.234500E-7	7.115595E-3
1.235000E-7	7.083048E-3
1.235500E-7	7.019669E-3
1.236000E-7	6.971707E-3
1.236500E-7	6.939161E-3
1.237000E-7	6.934022E-3
1.237500E-7	6.952864E-3
1.238000E-7	6.995688E-3
1.238500E-7	7.031660E-3
1.239000E-7	7.101891E-3
1.239500E-7	7.204668E-3
1.240000E-7	7.326287E-3
1.240500E-7	7.375963E-3
1.241000E-7	7.387954E-3
1.241500E-7	7.399944E-3
1.242000E-7	7.363972E-3
1.242500E-7	7.290315E-3
1.243000E-7	7.177261E-3
1.243500E-7	7.089900E-3
1.244000E-7	6.958003E-3
1.244500E-7	6.843235E-3
1.245000E-7	6.774717E-3
1.245500E-7	6.706199E-3
1.246000E-7	6.618839E-3
1.246500E-7	6.593145E-3
1.247000E-7	6.601710E-3
1.247500E-7	6.623978E-3
1.248000E-7	6.687357E-3
1.248500E-7	6.711338E-3
1.249000E-7	6.738746E-3
1.249500E-7	6.795273E-3
1.250000E-7	6.838097E-3
1.250500E-7	6.910041E-3
1.251000E-7	6.988836E-3
1.251500E-7	7.129298E-3
1.252000E-7	7.235501E-3
1.252500E-7	7.370824E-3
1.253000E-7	7.417074E-3
1.253500E-7	7.451333E-3
1.254000E-7	7.439342E-3
1.254500E-7	7.384528E-3
1.255000E-7	7.300593E-3
1.255500E-7	7.238927E-3
1.256000E-7	7.143002E-3
1.256500E-7	7.108743E-3
1.257000E-7	7.081336E-3
1.257500E-7	7.053928E-3
1.258000E-7	7.110456E-3
1.258500E-7	7.187538E-3
1.259000E-7	7.329713E-3
1.259500E-7	7.468462E-3
1.260000E-7	7.617489E-3
1.260500E-7	7.764803E-3
1.261000E-7	7.879570E-3
1.261500E-7	7.954940E-3
1.262000E-7	7.994338E-3
1.262500E-7	7.977208E-3
1.263000E-7	7.906977E-3
1.263500E-7	7.823043E-3
1.264000E-7	7.757951E-3
1.264500E-7	7.632905E-3
1.265000E-7	7.504434E-3
1.265500E-7	7.372537E-3
1.266000E-7	7.280038E-3
1.266500E-7	7.218372E-3
1.267000E-7	7.163557E-3
1.267500E-7	7.098465E-3
1.268000E-7	7.089900E-3
1.268500E-7	7.081336E-3
1.269000E-7	7.086474E-3
1.269500E-7	7.059067E-3
1.270000E-7	7.053928E-3
1.270500E-7	7.031660E-3
1.271000E-7	7.000827E-3
1.271500E-7	7.028234E-3
1.272000E-7	7.065919E-3
1.272500E-7	7.089900E-3
1.273000E-7	7.122446E-3
1.273500E-7	7.148141E-3
1.274000E-7	7.206381E-3
1.274500E-7	7.280038E-3
1.275000E-7	7.321149E-3
1.275500E-7	7.379389E-3
1.276000E-7	7.427351E-3
1.276500E-7	7.470175E-3
1.277000E-7	7.495869E-3
1.277500E-7	7.463323E-3
1.278000E-7	7.394805E-3
1.278500E-7	7.290315E-3
1.279000E-7	7.168696E-3
1.279500E-7	7.038512E-3
1.280000E-7	6.889485E-3
1.280500E-7	6.776430E-3
1.281000E-7	6.711338E-3
1.281500E-7	6.666802E-3
1.282000E-7	6.670228E-3
1.282500E-7	6.711338E-3
1.283000E-7	6.783282E-3
1.283500E-7	6.860365E-3
1.284000E-7	6.925457E-3
1.284500E-7	6.971707E-3
1.285000E-7	6.930596E-3
1.285500E-7	6.899763E-3
1.286000E-7	6.779856E-3
1.286500E-7	6.644533E-3
1.287000E-7	6.492081E-3
1.287500E-7	6.331063E-3
1.288000E-7	6.195740E-3
1.288500E-7	6.098102E-3
1.289000E-7	6.063843E-3
1.289500E-7	6.120371E-3
1.290000E-7	6.245416E-3
1.290500E-7	6.413285E-3
1.291000E-7	6.618839E-3
1.291500E-7	6.774717E-3
1.292000E-7	6.956290E-3
1.292500E-7	7.117307E-3
1.293000E-7	7.208094E-3
1.293500E-7	7.199529E-3
1.294000E-7	7.151566E-3
1.294500E-7	7.069345E-3
1.295000E-7	6.980271E-3
1.295500E-7	6.903189E-3
1.296000E-7	6.791847E-3
1.296500E-7	6.704487E-3
1.297000E-7	6.704487E-3
1.297500E-7	6.701061E-3
1.298000E-7	6.769579E-3
1.298500E-7	6.880920E-3
1.299000E-7	6.987123E-3
1.299500E-7	7.105317E-3
1.300000E-7	7.213233E-3
1.300500E-7	7.280038E-3
1.301000E-7	7.324574E-3
1.301500E-7	7.370824E-3
1.302000E-7	7.372537E-3
1.302500E-7	7.304019E-3
1.303000E-7	7.208094E-3
1.303500E-7	7.055641E-3
1.304000E-7	6.908328E-3
1.304500E-7	6.788421E-3
1.305000E-7	6.707912E-3
1.305500E-7	6.663376E-3
1.306000E-7	6.677079E-3
1.306500E-7	6.699348E-3
1.307000E-7	6.728468E-3
1.307500E-7	6.752449E-3
1.308000E-7	6.807264E-3
1.308500E-7	6.910041E-3
1.309000E-7	6.997401E-3
1.309500E-7	7.065919E-3
1.310000E-7	7.146428E-3
1.310500E-7	7.202955E-3
1.311000E-7	7.237214E-3
1.311500E-7	7.226936E-3
1.312000E-7	7.233788E-3
1.312500E-7	7.249205E-3
1.313000E-7	7.201242E-3
1.313500E-7	7.213233E-3
1.314000E-7	7.242353E-3
1.314500E-7	7.245779E-3
1.315000E-7	7.237214E-3
1.315500E-7	7.247492E-3
1.316000E-7	7.249205E-3
1.316500E-7	7.268047E-3
1.317000E-7	7.232075E-3
1.317500E-7	7.213233E-3
1.318000E-7	7.213233E-3
1.318500E-7	7.216659E-3
1.319000E-7	7.153279E-3
1.319500E-7	7.081336E-3
1.320000E-7	7.035086E-3
1.320500E-7	6.946012E-3
1.321000E-7	6.880920E-3
1.321500E-7	6.838097E-3
1.322000E-7	6.812402E-3
1.322500E-7	6.832958E-3
1.323000E-7	6.896337E-3
1.323500E-7	6.949438E-3
1.324000E-7	7.047077E-3
1.324500E-7	7.168696E-3
1.325000E-7	7.278325E-3
1.325500E-7	7.360546E-3
1.326000E-7	7.415361E-3
1.326500E-7	7.422213E-3
1.327000E-7	7.396518E-3
1.327500E-7	7.324574E-3
1.328000E-7	7.204668E-3
1.328500E-7	7.024808E-3
1.329000E-7	6.810689E-3
1.329500E-7	6.560599E-3
1.330000E-7	6.296804E-3
1.330500E-7	6.024445E-3
1.331000E-7	5.767503E-3
1.331500E-7	5.584217E-3
1.332000E-7	5.484866E-3
1.332500E-7	5.457459E-3
1.333000E-7	5.486579E-3
1.333500E-7	5.601347E-3
1.334000E-7	5.758938E-3
1.334500E-7	5.950788E-3
1.335000E-7	6.158055E-3
1.335500E-7	6.401294E-3
1.336000E-7	6.649672E-3
1.336500E-7	6.877494E-3
1.337000E-7	7.088187E-3
1.337500E-7	7.302306E-3
1.338000E-7	7.459897E-3
1.338500E-7	7.588369E-3
1.339000E-7	7.631192E-3
1.339500E-7	7.632905E-3
1.340000E-7	7.588369E-3
1.340500E-7	7.482166E-3
1.341000E-7	7.298880E-3
1.341500E-7	7.083048E-3
1.342000E-7	6.862078E-3
1.342500E-7	6.654811E-3
1.343000E-7	6.471525E-3
1.343500E-7	6.291666E-3
1.344000E-7	6.152917E-3
1.344500E-7	6.094676E-3
1.345000E-7	6.082686E-3
1.345500E-7	6.104954E-3
1.346000E-7	6.214583E-3
1.346500E-7	6.413285E-3
1.347000E-7	6.603422E-3
1.347500E-7	6.815828E-3
1.348000E-7	6.968281E-3
1.348500E-7	7.072771E-3
1.349000E-7	7.086474E-3
1.349500E-7	7.057354E-3
1.350000E-7	6.980271E-3
1.350500E-7	6.839810E-3
1.351000E-7	6.654811E-3
1.351500E-7	6.486942E-3
1.352000E-7	6.385878E-3
1.352500E-7	6.356758E-3
1.353000E-7	6.385878E-3
1.353500E-7	6.440692E-3
1.354000E-7	6.617126E-3
1.354500E-7	6.822680E-3
1.355000E-7	7.002540E-3
1.355500E-7	7.153279E-3
1.356000E-7	7.256056E-3
1.356500E-7	7.280038E-3
1.357000E-7	7.261195E-3
1.357500E-7	7.154992E-3
1.358000E-7	7.004253E-3
1.358500E-7	6.850087E-3
1.359000E-7	6.689070E-3
1.359500E-7	6.548608E-3
1.360000E-7	6.474951E-3
1.360500E-7	6.478377E-3
1.361000E-7	6.517775E-3
1.361500E-7	6.680505E-3
1.362000E-7	6.877494E-3
1.362500E-7	7.071058E-3
1.363000E-7	7.240640E-3
1.363500E-7	7.389667E-3
1.364000E-7	7.432490E-3
1.364500E-7	7.393092E-3
1.365000E-7	7.310871E-3
1.365500E-7	7.185825E-3
1.366000E-7	7.035086E-3
1.366500E-7	6.841523E-3
1.367000E-7	6.641107E-3
1.367500E-7	6.519488E-3
1.368000E-7	6.440692E-3
1.368500E-7	6.389304E-3
1.369000E-7	6.358471E-3
1.369500E-7	6.334489E-3
1.370000E-7	6.337915E-3
1.370500E-7	6.438979E-3
1.371000E-7	6.548608E-3
1.371500E-7	6.603422E-3
1.372000E-7	6.647959E-3
1.372500E-7	6.702774E-3
1.373000E-7	6.757588E-3
1.373500E-7	6.824393E-3
1.374000E-7	6.892911E-3
1.374500E-7	6.946012E-3
1.375000E-7	6.951151E-3
1.375500E-7	6.987123E-3
1.376000E-7	7.005966E-3
1.376500E-7	7.055641E-3
1.377000E-7	7.040225E-3
1.377500E-7	7.005966E-3
1.378000E-7	6.964855E-3
1.378500E-7	6.829532E-3
1.379000E-7	6.627404E-3
1.379500E-7	6.440692E-3
1.380000E-7	6.206018E-3
1.380500E-7	6.041575E-3
1.381000E-7	5.940511E-3
1.381500E-7	5.883983E-3
1.382000E-7	5.820604E-3
1.382500E-7	5.825743E-3
1.383000E-7	5.829169E-3
1.383500E-7	5.854863E-3
1.384000E-7	5.949076E-3
1.384500E-7	6.034723E-3
1.385000E-7	6.055278E-3
1.385500E-7	6.048427E-3
1.386000E-7	6.082686E-3
1.386500E-7	6.098102E-3
1.387000E-7	6.094676E-3
1.387500E-7	6.077547E-3
1.388000E-7	6.096389E-3
1.388500E-7	6.099815E-3
1.389000E-7	6.110093E-3
1.389500E-7	6.101528E-3
1.390000E-7	6.120371E-3
1.390500E-7	6.161481E-3
1.391000E-7	6.180324E-3
1.391500E-7	6.194027E-3
1.392000E-7	6.175185E-3
1.392500E-7	6.168333E-3
1.393000E-7	6.134074E-3
1.393500E-7	6.067269E-3
1.394000E-7	6.021019E-3
1.394500E-7	5.961066E-3
1.395000E-7	5.861715E-3
1.395500E-7	5.776068E-3
1.396000E-7	5.698985E-3
1.396500E-7	5.613337E-3
1.397000E-7	5.591069E-3
1.397500E-7	5.585930E-3
1.398000E-7	5.628754E-3
1.398500E-7	5.675004E-3
1.399000E-7	5.740096E-3
1.399500E-7	5.815465E-3
1.400000E-7	5.851437E-3
1.400500E-7	5.943937E-3
1.401000E-7	6.063843E-3
1.401500E-7	6.134074E-3
1.402000E-7	6.223148E-3
1.402500E-7	6.274536E-3
1.403000E-7	6.348193E-3
1.403500E-7	6.430414E-3
1.404000E-7	6.505784E-3
1.404500E-7	6.514349E-3
1.405000E-7	6.485229E-3
1.405500E-7	6.435553E-3
1.406000E-7	6.370461E-3
1.406500E-7	6.279675E-3
1.407000E-7	6.185463E-3
1.407500E-7	6.146065E-3
1.408000E-7	6.045001E-3
1.408500E-7	6.022732E-3
1.409000E-7	6.003890E-3
1.409500E-7	6.058704E-3
1.410000E-7	6.132361E-3
1.410500E-7	6.252268E-3
1.411000E-7	6.363609E-3
1.411500E-7	6.469812E-3
1.412000E-7	6.553747E-3
1.412500E-7	6.611987E-3
1.413000E-7	6.677079E-3
1.413500E-7	6.702774E-3
1.414000E-7	6.725042E-3
1.414500E-7	6.754162E-3
1.415000E-7	6.745597E-3
1.415500E-7	6.771292E-3
1.416000E-7	6.798699E-3
1.416500E-7	6.836384E-3
1.417000E-7	6.838097E-3
1.417500E-7	6.808976E-3
1.418000E-7	6.781569E-3
1.418500E-7	6.749023E-3
1.419000E-7	6.653098E-3
1.419500E-7	6.533191E-3
1.420000E-7	6.430414E-3
1.420500E-7	6.300230E-3
1.421000E-7	6.103241E-3
1.421500E-7	5.914817E-3
1.422000E-7	5.707550E-3
1.422500E-7	5.525977E-3
1.423000E-7	5.397506E-3
1.423500E-7	5.282738E-3
1.424000E-7	5.195378E-3
1.424500E-7	5.181674E-3
1.425000E-7	5.173109E-3
1.425500E-7	5.205655E-3
1.426000E-7	5.301580E-3
1.426500E-7	5.433478E-3
1.427000E-7	5.532829E-3
1.427500E-7	5.649309E-3
1.428000E-7	5.765790E-3
1.428500E-7	5.842873E-3
1.429000E-7	5.907965E-3
1.429500E-7	5.943937E-3
1.430000E-7	5.974770E-3
1.430500E-7	6.027871E-3
1.431000E-7	6.080973E-3
1.431500E-7	6.060417E-3
1.432000E-7	6.079260E-3
1.432500E-7	6.103241E-3
1.433000E-7	6.187176E-3
1.433500E-7	6.262545E-3
1.434000E-7	6.385878E-3
1.434500E-7	6.504071E-3
1.435000E-7	6.545182E-3
1.435500E-7	6.579441E-3
1.436000E-7	6.584580E-3
1.436500E-7	6.536617E-3
1.437000E-7	6.420137E-3
1.437500E-7	6.247129E-3
1.438000E-7	6.060417E-3
1.438500E-7	5.880558E-3
1.439000E-7	5.769216E-3
1.439500E-7	5.724679E-3
1.440000E-7	5.712688E-3
1.440500E-7	5.698985E-3
1.441000E-7	5.789771E-3
1.441500E-7	5.947363E-3
1.442000E-7	6.134074E-3
1.442500E-7	6.301943E-3
1.443000E-7	6.485229E-3
1.443500E-7	6.610274E-3
1.444000E-7	6.651385E-3
1.444500E-7	6.622265E-3
1.445000E-7	6.517775E-3
1.445500E-7	6.351619E-3
1.446000E-7	6.166620E-3
1.446500E-7	5.952501E-3
1.447000E-7	5.722966E-3
1.447500E-7	5.553384E-3
1.448000E-7	5.443755E-3
1.448500E-7	5.370098E-3
1.449000E-7	5.364960E-3
1.449500E-7	5.394080E-3
1.450000E-7	5.419774E-3
1.450500E-7	5.534542E-3
1.451000E-7	5.620189E-3
1.451500E-7	5.681855E-3
1.452000E-7	5.752086E-3
1.452500E-7	5.815465E-3
1.453000E-7	5.839447E-3
1.453500E-7	5.786345E-3
1.454000E-7	5.762364E-3
1.454500E-7	5.688707E-3
1.455000E-7	5.645883E-3
1.455500E-7	5.572227E-3
1.456000E-7	5.541393E-3
1.456500E-7	5.565375E-3
1.457000E-7	5.632180E-3
1.457500E-7	5.710975E-3
1.458000E-7	5.832595E-3
1.458500E-7	5.962779E-3
1.459000E-7	6.111806E-3
1.459500E-7	6.229999E-3
1.460000E-7	6.281388E-3
1.460500E-7	6.368748E-3
1.461000E-7	6.418424E-3
1.461500E-7	6.409859E-3
1.462000E-7	6.361896E-3
1.462500E-7	6.224860E-3
1.463000E-7	6.062130E-3
1.463500E-7	5.918242E-3
1.464000E-7	5.781206E-3
1.464500E-7	5.671578E-3
1.465000E-7	5.572227E-3
1.465500E-7	5.486579E-3
1.466000E-7	5.464311E-3
1.466500E-7	5.493431E-3
1.467000E-7	5.565375E-3
1.467500E-7	5.692133E-3
1.468000E-7	5.782919E-3
1.468500E-7	5.836021E-3
1.469000E-7	5.839447E-3
1.469500E-7	5.794910E-3
1.470000E-7	5.717827E-3
1.470500E-7	5.556810E-3
1.471000E-7	5.335839E-3
1.471500E-7	5.155980E-3
1.472000E-7	4.989824E-3
1.472500E-7	4.881908E-3
1.473000E-7	4.804825E-3
1.473500E-7	4.787695E-3
1.474000E-7	4.883621E-3
1.474500E-7	5.029221E-3
1.475000E-7	5.221072E-3
1.475500E-7	5.454033E-3
1.476000E-7	5.666439E-3
1.476500E-7	5.880558E-3
1.477000E-7	6.031297E-3
1.477500E-7	6.110093E-3
1.478000E-7	6.140926E-3
1.478500E-7	6.123796E-3
1.479000E-7	6.067269E-3
1.479500E-7	5.937085E-3
1.480000E-7	5.793197E-3
1.480500E-7	5.625328E-3
1.481000E-7	5.474588E-3
1.481500E-7	5.366673E-3
1.482000E-7	5.356395E-3
1.482500E-7	5.392367E-3
1.483000E-7	5.436903E-3
1.483500E-7	5.544819E-3
1.484000E-7	5.637319E-3
1.484500E-7	5.750373E-3
1.485000E-7	5.832595E-3
1.485500E-7	5.842873E-3
1.486000E-7	5.863428E-3
1.486500E-7	5.824030E-3
1.487000E-7	5.750373E-3
1.487500E-7	5.683568E-3
1.488000E-7	5.606486E-3
1.488500E-7	5.510560E-3
1.489000E-7	5.436903E-3
1.489500E-7	5.414635E-3
1.490000E-7	5.361534E-3
1.490500E-7	5.438616E-3
1.491000E-7	5.537968E-3
1.491500E-7	5.585930E-3
1.492000E-7	5.698985E-3
1.492500E-7	5.800049E-3
1.493000E-7	5.808614E-3
1.493500E-7	5.798336E-3
1.494000E-7	5.750373E-3
1.494500E-7	5.666439E-3
1.495000E-7	5.575652E-3
1.495500E-7	5.467737E-3
1.496000E-7	5.332414E-3
1.496500E-7	5.277599E-3
1.497000E-7	5.224498E-3
1.497500E-7	5.173109E-3
1.498000E-7	5.191952E-3
1.498500E-7	5.188526E-3
1.499000E-7	5.181674E-3
1.499500E-7	5.186813E-3
1.500000E-7	5.226211E-3
1.500500E-7	5.250192E-3
1.501000E-7	5.282738E-3
1.501500E-7	5.291303E-3
1.502000E-7	5.298155E-3
1.502500E-7	5.303293E-3
1.503000E-7	5.296442E-3
1.503500E-7	5.327275E-3
1.504000E-7	5.375237E-3
1.504500E-7	5.402644E-3
1.505000E-7	5.426626E-3
1.505500E-7	5.428339E-3
1.506000E-7	5.421487E-3
1.506500E-7	5.385515E-3
1.507000E-7	5.310145E-3
1.507500E-7	5.188526E-3
1.508000E-7	5.053203E-3
1.508500E-7	4.883621E-3
1.509000E-7	4.743159E-3
1.509500E-7	4.626678E-3
1.510000E-7	4.518762E-3
1.510500E-7	4.450244E-3
1.511000E-7	4.417698E-3
1.511500E-7	4.422837E-3
1.512000E-7	4.511910E-3
1.512500E-7	4.580428E-3
1.513000E-7	4.674641E-3
1.513500E-7	4.839084E-3
1.514000E-7	5.001814E-3
1.514500E-7	5.157693E-3
1.515000E-7	5.296442E-3
1.515500E-7	5.450607E-3
1.516000E-7	5.546532E-3
1.516500E-7	5.627041E-3
1.517000E-7	5.625328E-3
1.517500E-7	5.599634E-3
1.518000E-7	5.601347E-3
1.518500E-7	5.520838E-3
1.519000E-7	5.455746E-3
1.519500E-7	5.406070E-3
1.520000E-7	5.387228E-3
1.520500E-7	5.325562E-3
1.521000E-7	5.263896E-3
1.521500E-7	5.219359E-3
1.522000E-7	5.198803E-3
1.522500E-7	5.203942E-3
1.523000E-7	5.185100E-3
1.523500E-7	5.161119E-3
1.524000E-7	5.133711E-3
1.524500E-7	5.099452E-3
1.525000E-7	5.070332E-3
1.525500E-7	5.111443E-3
1.526000E-7	5.085749E-3
1.526500E-7	5.065193E-3
1.527000E-7	5.053203E-3
1.527500E-7	5.097739E-3
1.528000E-7	5.135424E-3
1.528500E-7	5.181674E-3
1.529000E-7	5.227924E-3
1.529500E-7	5.222785E-3
1.530000E-7	5.275886E-3
1.530500E-7	5.270747E-3
1.531000E-7	5.238201E-3
1.531500E-7	5.243340E-3
1.532000E-7	5.234775E-3
1.532500E-7	5.198803E-3
1.533000E-7	5.195378E-3
1.533500E-7	5.275886E-3
1.534000E-7	5.366673E-3
1.534500E-7	5.466024E-3
1.535000E-7	5.601347E-3
1.535500E-7	5.722966E-3
1.536000E-7	5.841160E-3
1.536500E-7	5.937085E-3
1.537000E-7	5.998751E-3
1.537500E-7	6.075834E-3
1.538000E-7	6.130648E-3
1.538500E-7	6.130648E-3
1.539000E-7	6.104954E-3
1.539500E-7	6.055278E-3
1.540000E-7	5.971344E-3
1.540500E-7	5.880558E-3
1.541000E-7	5.815465E-3
1.541500E-7	5.745234E-3
1.542000E-7	5.683568E-3
1.542500E-7	5.627041E-3
1.543000E-7	5.582504E-3
1.543500E-7	5.549958E-3
1.544000E-7	5.522551E-3
1.544500E-7	5.507134E-3
1.545000E-7	5.496857E-3
1.545500E-7	5.543106E-3
1.546000E-7	5.572227E-3
1.546500E-7	5.649309E-3
1.547000E-7	5.700698E-3
1.547500E-7	5.746947E-3
1.548000E-7	5.817178E-3
1.548500E-7	5.890835E-3
1.549000E-7	5.964492E-3
1.549500E-7	6.019306E-3
1.550000E-7	6.038149E-3
1.550500E-7	6.058704E-3
1.551000E-7	6.012455E-3
1.551500E-7	5.930233E-3
1.552000E-7	5.916529E-3
1.552500E-7	5.916529E-3
1.553000E-7	5.878845E-3
1.553500E-7	5.832595E-3
1.554000E-7	5.726392E-3
1.554500E-7	5.642457E-3
1.555000E-7	5.525977E-3
1.555500E-7	5.430052E-3
1.556000E-7	5.342691E-3
1.556500E-7	5.316997E-3
1.557000E-7	5.306719E-3
1.557500E-7	5.289590E-3
1.558000E-7	5.263896E-3
1.558500E-7	5.222785E-3
1.559000E-7	5.236488E-3
1.559500E-7	5.286164E-3
1.560000E-7	5.346117E-3
1.560500E-7	5.394080E-3
1.561000E-7	5.467737E-3
1.561500E-7	5.495144E-3
1.562000E-7	5.495144E-3
1.562500E-7	5.496857E-3
1.563000E-7	5.481440E-3
1.563500E-7	5.406070E-3
1.564000E-7	5.323849E-3
1.564500E-7	5.193665E-3
1.565000E-7	5.056629E-3
1.565500E-7	4.931583E-3
1.566000E-7	4.832232E-3
1.566500E-7	4.779131E-3
1.567000E-7	4.684918E-3
1.567500E-7	4.648946E-3
1.568000E-7	4.662650E-3
1.568500E-7	4.738020E-3
1.569000E-7	4.835658E-3
1.569500E-7	4.986398E-3
1.570000E-7	5.257044E-3
1.570500E-7	5.478014E-3
1.571000E-7	5.678429E-3
1.571500E-7	5.837734E-3
1.572000E-7	5.947363E-3
1.572500E-7	5.985047E-3
1.573000E-7	5.966205E-3
1.573500E-7	5.942224E-3
1.574000E-7	5.870280E-3
1.574500E-7	5.781206E-3
1.575000E-7	5.666439E-3
1.575500E-7	5.579078E-3
1.576000E-7	5.534542E-3
1.576500E-7	5.471162E-3
1.577000E-7	5.416348E-3
1.577500E-7	5.407783E-3
1.578000E-7	5.448894E-3
1.578500E-7	5.450607E-3
1.579000E-7	5.435191E-3
1.579500E-7	5.430052E-3
1.580000E-7	5.395793E-3
1.580500E-7	5.349543E-3
1.581000E-7	5.298155E-3
1.581500E-7	5.281025E-3
1.582000E-7	5.269034E-3
1.582500E-7	5.287877E-3
1.583000E-7	5.325562E-3
1.583500E-7	5.382089E-3
1.584000E-7	5.457459E-3
1.584500E-7	5.553384E-3
1.585000E-7	5.652735E-3
1.585500E-7	5.721253E-3
1.586000E-7	5.793197E-3
1.586500E-7	5.779493E-3
1.587000E-7	5.750373E-3
1.587500E-7	5.752086E-3
1.588000E-7	5.707550E-3
1.588500E-7	5.637319E-3
1.589000E-7	5.585930E-3
1.589500E-7	5.541393E-3
1.590000E-7	5.476301E-3
1.590500E-7	5.406070E-3
1.591000E-7	5.352969E-3
1.591500E-7	5.296442E-3
1.592000E-7	5.241627E-3
1.592500E-7	5.198803E-3
1.593000E-7	5.176535E-3
1.593500E-7	5.197090E-3
1.594000E-7	5.214220E-3
1.594500E-7	5.257044E-3
1.595000E-7	5.270747E-3
1.595500E-7	5.293016E-3
1.596000E-7	5.272460E-3
1.596500E-7	5.255331E-3
1.597000E-7	5.243340E-3
1.597500E-7	5.203942E-3
1.598000E-7	5.149128E-3
1.598500E-7	5.104591E-3
1.599000E-7	5.120008E-3
1.599500E-7	5.131998E-3
1.600000E-7	5.161119E-3
1.600500E-7	5.224498E-3
1.601000E-7	5.311858E-3
1.601500E-7	5.430052E-3
1.602000E-7	5.553384E-3
1.602500E-7	5.721253E-3
1.603000E-7	5.842873E-3
1.603500E-7	5.945650E-3
1.604000E-7	5.991899E-3
1.604500E-7	6.012455E-3
1.605000E-7	6.012455E-3
1.605500E-7	6.027871E-3
1.606000E-7	6.033010E-3
1.606500E-7	6.017594E-3
1.607000E-7	5.993612E-3
1.607500E-7	5.976483E-3
1.608000E-7	5.981622E-3
1.608500E-7	6.009029E-3
1.609000E-7	5.971344E-3
1.609500E-7	5.938798E-3
1.610000E-7	5.875419E-3
1.610500E-7	5.791484E-3
1.611000E-7	5.652735E-3
1.611500E-7	5.537968E-3
1.612000E-7	5.419774E-3
1.612500E-7	5.308432E-3
1.613000E-7	5.234775E-3
1.613500E-7	5.174822E-3
1.614000E-7	5.096026E-3
1.614500E-7	5.094313E-3
1.615000E-7	5.174822E-3
1.615500E-7	5.253618E-3
1.616000E-7	5.318710E-3
1.616500E-7	5.363247E-3
1.617000E-7	5.394080E-3
1.617500E-7	5.424913E-3
1.618000E-7	5.421487E-3
1.618500E-7	5.435191E-3
1.619000E-7	5.433478E-3
1.619500E-7	5.426626E-3
1.620000E-7	5.419774E-3
1.620500E-7	5.366673E-3
1.621000E-7	5.301580E-3
1.621500E-7	5.275886E-3
1.622000E-7	5.320423E-3
1.622500E-7	5.352969E-3
1.623000E-7	5.423200E-3
1.623500E-7	5.469450E-3
1.624000E-7	5.531116E-3
1.624500E-7	5.572227E-3
1.625000E-7	5.613337E-3
1.625500E-7	5.716114E-3
1.626000E-7	5.794910E-3
1.626500E-7	5.889122E-3
1.627000E-7	5.952501E-3
1.627500E-7	6.010742E-3
1.628000E-7	6.036436E-3
1.628500E-7	6.017594E-3
1.629000E-7	5.969631E-3
1.629500E-7	5.844586E-3
1.630000E-7	5.717827E-3
1.630500E-7	5.611624E-3
1.631000E-7	5.515699E-3
1.631500E-7	5.450607E-3
1.632000E-7	5.421487E-3
1.632500E-7	5.467737E-3
1.633000E-7	5.505421E-3
1.633500E-7	5.640745E-3
1.634000E-7	5.860002E-3
1.634500E-7	6.146065E-3
1.635000E-7	6.339628E-3
1.635500E-7	6.474951E-3
1.636000E-7	6.569163E-3
1.636500E-7	6.572589E-3
1.637000E-7	6.516062E-3
1.637500E-7	6.384165E-3
1.638000E-7	6.144352E-3
1.638500E-7	5.870280E-3
1.639000E-7	5.568801E-3
1.639500E-7	5.253618E-3
1.640000E-7	4.989824E-3
1.640500E-7	4.791121E-3
1.641000E-7	4.684918E-3
1.641500E-7	4.664363E-3
1.642000E-7	4.708900E-3
1.642500E-7	4.821954E-3
1.643000E-7	4.958990E-3
1.643500E-7	5.152554E-3
1.644000E-7	5.323849E-3
1.644500E-7	5.525977E-3
1.645000E-7	5.697272E-3
1.645500E-7	5.834308E-3
1.646000E-7	5.902826E-3
1.646500E-7	5.935372E-3
1.647000E-7	5.887409E-3
1.647500E-7	5.842873E-3
1.648000E-7	5.757225E-3
1.648500E-7	5.649309E-3
1.649000E-7	5.505421E-3
1.649500E-7	5.332414E-3
1.650000E-7	5.140563E-3
1.650500E-7	4.998388E-3
1.651000E-7	4.902463E-3
1.651500E-7	4.856213E-3
1.652000E-7	4.917880E-3
1.652500E-7	5.030934E-3
1.653000E-7	5.181674E-3
1.653500E-7	5.431765E-3
1.654000E-7	5.698985E-3
1.654500E-7	6.015881E-3
1.655000E-7	6.372174E-3
1.655500E-7	6.678792E-3
1.656000E-7	6.939161E-3
1.656500E-7	7.103604E-3
1.657000E-7	7.172122E-3
1.657500E-7	7.141289E-3
1.658000E-7	6.978559E-3
1.658500E-7	6.697635E-3
1.659000E-7	6.403007E-3
1.659500E-7	6.075834E-3
1.660000E-7	5.788058E-3
1.660500E-7	5.510560E-3
1.661000E-7	5.236488E-3
1.661500E-7	5.073758E-3
1.662000E-7	5.032647E-3
1.662500E-7	5.041212E-3
1.663000E-7	5.073758E-3
1.663500E-7	5.164544E-3
1.664000E-7	5.311858E-3
1.664500E-7	5.428339E-3
1.665000E-7	5.544819E-3
1.665500E-7	5.661300E-3
1.666000E-7	5.721253E-3
1.666500E-7	5.782919E-3
1.667000E-7	5.803475E-3
1.667500E-7	5.784632E-3
1.668000E-7	5.765790E-3
1.668500E-7	5.733244E-3
1.669000E-7	5.690420E-3
1.669500E-7	5.669865E-3
1.670000E-7	5.632180E-3
1.670500E-7	5.628754E-3
1.671000E-7	5.609911E-3
1.671500E-7	5.589356E-3
1.672000E-7	5.551671E-3
1.672500E-7	5.503709E-3
1.673000E-7	5.466024E-3
1.673500E-7	5.448894E-3
1.674000E-7	5.409496E-3
1.674500E-7	5.436903E-3
1.675000E-7	5.471162E-3
1.675500E-7	5.558523E-3
1.676000E-7	5.640745E-3
1.676500E-7	5.772642E-3
1.677000E-7	5.882270E-3
1.677500E-7	5.979909E-3
1.678000E-7	6.111806E-3
1.678500E-7	6.252268E-3
1.679000E-7	6.337915E-3
1.679500E-7	6.343054E-3
1.680000E-7	6.348193E-3
1.680500E-7	6.365322E-3
1.681000E-7	6.355045E-3
1.681500E-7	6.300230E-3
1.682000E-7	6.231712E-3
1.682500E-7	6.146065E-3
1.683000E-7	6.082686E-3
1.683500E-7	6.005603E-3
1.684000E-7	5.878845E-3
1.684500E-7	5.808614E-3
1.685000E-7	5.779493E-3
1.685500E-7	5.777781E-3
1.686000E-7	5.800049E-3
1.686500E-7	5.839447E-3
1.687000E-7	5.824030E-3
1.687500E-7	5.810327E-3
1.688000E-7	5.774355E-3
1.688500E-7	5.750373E-3
1.689000E-7	5.698985E-3
1.689500E-7	5.698985E-3
1.690000E-7	5.664726E-3
1.690500E-7	5.651022E-3
1.691000E-7	5.693846E-3
1.691500E-7	5.770929E-3
1.692000E-7	5.820604E-3
1.692500E-7	5.837734E-3
1.693000E-7	5.793197E-3
1.693500E-7	5.740096E-3
1.694000E-7	5.746947E-3
1.694500E-7	5.752086E-3
1.695000E-7	5.726392E-3
1.695500E-7	5.717827E-3
1.696000E-7	5.734957E-3
1.696500E-7	5.760651E-3
1.697000E-7	5.793197E-3
1.697500E-7	5.815465E-3
1.698000E-7	5.865141E-3
1.698500E-7	5.873706E-3
1.699000E-7	5.883983E-3
1.699500E-7	5.882270E-3
1.700000E-7	5.918242E-3
1.700500E-7	5.935372E-3
1.701000E-7	5.918242E-3
1.701500E-7	5.890835E-3
1.702000E-7	5.851437E-3
1.702500E-7	5.753799E-3
1.703000E-7	5.676716E-3
1.703500E-7	5.688707E-3
1.704000E-7	5.686994E-3
1.704500E-7	5.698985E-3
1.705000E-7	5.731531E-3
1.705500E-7	5.803475E-3
1.706000E-7	5.813752E-3
1.706500E-7	5.878845E-3
1.707000E-7	5.957640E-3
1.707500E-7	6.000464E-3
1.708000E-7	6.045001E-3
1.708500E-7	6.060417E-3
1.709000E-7	6.070695E-3
1.709500E-7	6.034723E-3
1.710000E-7	6.026158E-3
1.710500E-7	5.945650E-3
1.711000E-7	5.878845E-3
1.711500E-7	5.770929E-3
1.712000E-7	5.750373E-3
1.712500E-7	5.736670E-3
1.713000E-7	5.736670E-3
1.713500E-7	5.736670E-3
1.714000E-7	5.733244E-3
1.714500E-7	5.750373E-3
1.715000E-7	5.789771E-3
1.715500E-7	5.860002E-3
1.716000E-7	5.889122E-3
1.716500E-7	5.967918E-3
1.717000E-7	5.983335E-3
1.717500E-7	6.012455E-3
1.718000E-7	5.995325E-3
1.718500E-7	5.971344E-3
1.719000E-7	5.976483E-3
1.719500E-7	5.943937E-3
1.720000E-7	5.935372E-3
1.720500E-7	5.870280E-3
1.721000E-7	5.789771E-3
1.721500E-7	5.685281E-3
1.722000E-7	5.584217E-3
1.722500E-7	5.519125E-3
1.723000E-7	5.466024E-3
1.723500E-7	5.430052E-3
1.724000E-7	5.383802E-3
1.724500E-7	5.346117E-3
1.725000E-7	5.281025E-3
1.725500E-7	5.231349E-3
1.726000E-7	5.215933E-3
1.726500E-7	5.186813E-3
1.727000E-7	5.152554E-3
1.727500E-7	5.078897E-3
1.728000E-7	5.054916E-3
1.728500E-7	4.958990E-3
1.729000E-7	4.868204E-3
1.729500E-7	4.823667E-3
1.730000E-7	4.820241E-3
1.730500E-7	4.825380E-3
1.731000E-7	4.868204E-3
1.731500E-7	4.976120E-3
1.732000E-7	5.116582E-3
1.732500E-7	5.269034E-3
1.733000E-7	5.447181E-3
1.733500E-7	5.580791E-3
1.734000E-7	5.698985E-3
1.734500E-7	5.779493E-3
1.735000E-7	5.791484E-3
1.735500E-7	5.789771E-3
1.736000E-7	5.741809E-3
1.736500E-7	5.640745E-3
1.737000E-7	5.498570E-3
1.737500E-7	5.344404E-3
1.738000E-7	5.166257E-3
1.738500E-7	5.025795E-3
1.739000E-7	4.957277E-3
1.739500E-7	4.936722E-3
1.740000E-7	4.994962E-3
1.740500E-7	5.068619E-3
1.741000E-7	5.118295E-3
1.741500E-7	5.191952E-3
1.742000E-7	5.281025E-3
1.742500E-7	5.385515E-3
1.743000E-7	5.395793E-3
1.743500E-7	5.388941E-3
1.744000E-7	5.337552E-3
1.744500E-7	5.325562E-3
1.745000E-7	5.313571E-3
1.745500E-7	5.303293E-3
1.746000E-7	5.298155E-3
1.746500E-7	5.301580E-3
1.747000E-7	5.339265E-3
1.747500E-7	5.356395E-3
1.748000E-7	5.414635E-3
1.748500E-7	5.486579E-3
1.749000E-7	5.551671E-3
1.749500E-7	5.596208E-3
1.750000E-7	5.637319E-3
1.750500E-7	5.647596E-3
1.751000E-7	5.680142E-3
1.751500E-7	5.685281E-3
1.752000E-7	5.707550E-3
1.752500E-7	5.716114E-3
1.753000E-7	5.757225E-3
1.753500E-7	5.813752E-3
1.754000E-7	5.870280E-3
1.754500E-7	5.923381E-3
1.755000E-7	5.979909E-3
1.755500E-7	6.062130E-3
1.756000E-7	6.096389E-3
1.756500E-7	6.082686E-3
1.757000E-7	6.029584E-3
1.757500E-7	5.904539E-3
1.758000E-7	5.820604E-3
1.758500E-7	5.678429E-3
1.759000E-7	5.496857E-3
1.759500E-7	5.325562E-3
1.760000E-7	5.193665E-3
1.760500E-7	5.125147E-3
1.761000E-7	5.053203E-3
1.761500E-7	5.056629E-3
1.762000E-7	5.118295E-3
1.762500E-7	5.147415E-3
1.763000E-7	5.210794E-3
1.763500E-7	5.281025E-3
1.764000E-7	5.337552E-3
1.764500E-7	5.361534E-3
1.765000E-7	5.332414E-3
1.765500E-7	5.251905E-3
1.766000E-7	5.147415E-3
1.766500E-7	5.046351E-3
1.767000E-7	4.936722E-3
1.767500E-7	4.895611E-3
1.768000E-7	4.914454E-3
1.768500E-7	4.919593E-3
1.769000E-7	4.945287E-3
1.769500E-7	4.962416E-3
1.770000E-7	5.006953E-3
1.770500E-7	5.077184E-3
1.771000E-7	5.166257E-3
1.771500E-7	5.298155E-3
1.772000E-7	5.390654E-3
1.772500E-7	5.462598E-3
1.773000E-7	5.479727E-3
1.773500E-7	5.501996E-3
1.774000E-7	5.430052E-3
1.774500E-7	5.346117E-3
1.775000E-7	5.263896E-3
1.775500E-7	5.162831E-3
1.776000E-7	5.111443E-3
1.776500E-7	5.089175E-3
1.777000E-7	5.137137E-3
1.777500E-7	5.205655E-3
1.778000E-7	5.293016E-3
1.778500E-7	5.400932E-3
1.779000E-7	5.515699E-3
1.779500E-7	5.608198E-3
1.780000E-7	5.741809E-3
1.780500E-7	5.851437E-3
1.781000E-7	5.918242E-3
1.781500E-7	5.921668E-3
1.782000E-7	5.885696E-3
1.782500E-7	5.805188E-3
1.783000E-7	5.642457E-3
1.783500E-7	5.500283E-3
1.784000E-7	5.387228E-3
1.784500E-7	5.269034E-3
1.785000E-7	5.198803E-3
1.785500E-7	5.149128E-3
1.786000E-7	5.096026E-3
1.786500E-7	5.114869E-3
1.787000E-7	5.173109E-3
1.787500E-7	5.243340E-3
1.788000E-7	5.337552E-3
1.788500E-7	5.392367E-3
1.789000E-7	5.412922E-3
1.789500E-7	5.394080E-3
1.790000E-7	5.330701E-3
1.790500E-7	5.253618E-3
1.791000E-7	5.145702E-3
1.791500E-7	5.012092E-3
1.792000E-7	4.875056E-3
1.792500E-7	4.731168E-3
1.793000E-7	4.640382E-3
1.793500E-7	4.577003E-3
1.794000E-7	4.616400E-3
1.794500E-7	4.765427E-3
1.795000E-7	4.936722E-3
1.795500E-7	5.147415E-3
1.796000E-7	5.352969E-3
1.796500E-7	5.560236E-3
1.797000E-7	5.746947E-3
1.797500E-7	5.887409E-3
1.798000E-7	5.947363E-3
1.798500E-7	5.976483E-3
1.799000E-7	5.938798E-3
1.799500E-7	5.866854E-3
1.800000E-7	5.719540E-3
1.800500E-7	5.618476E-3
1.801000E-7	5.464311E-3
1.801500E-7	5.315284E-3
1.802000E-7	5.246766E-3
1.802500E-7	5.245053E-3
1.803000E-7	5.222785E-3
1.803500E-7	5.202229E-3
1.804000E-7	5.222785E-3
1.804500E-7	5.197090E-3
1.805000E-7	5.188526E-3
1.805500E-7	5.143989E-3
1.806000E-7	5.111443E-3
1.806500E-7	5.005240E-3
1.807000E-7	4.907602E-3
1.807500E-7	4.751723E-3
1.808000E-7	4.597558E-3
1.808500E-7	4.451957E-3
1.809000E-7	4.410846E-3
1.809500E-7	4.426263E-3
1.810000E-7	4.443392E-3
1.810500E-7	4.498207E-3
1.811000E-7	4.597558E-3
1.811500E-7	4.758575E-3
1.812000E-7	4.890472E-3
1.812500E-7	5.024083E-3
1.813000E-7	5.108017E-3
1.813500E-7	5.203942E-3
1.814000E-7	5.303293E-3
1.814500E-7	5.361534E-3
1.815000E-7	5.385515E-3
1.815500E-7	5.382089E-3
1.816000E-7	5.400932E-3
1.816500E-7	5.418061E-3
1.817000E-7	5.399219E-3
1.817500E-7	5.359821E-3
1.818000E-7	5.328988E-3
1.818500E-7	5.301580E-3
1.819000E-7	5.274173E-3
1.819500E-7	5.221072E-3
1.820000E-7	5.210794E-3
1.820500E-7	5.166257E-3
1.821000E-7	5.121721E-3
1.821500E-7	5.133711E-3
1.822000E-7	5.133711E-3
1.822500E-7	5.130285E-3
1.823000E-7	5.155980E-3
1.823500E-7	5.229637E-3
1.824000E-7	5.305006E-3
1.824500E-7	5.368385E-3
1.825000E-7	5.442042E-3
1.825500E-7	5.515699E-3
1.826000E-7	5.558523E-3
1.826500E-7	5.560236E-3
1.827000E-7	5.567088E-3
1.827500E-7	5.517412E-3
1.828000E-7	5.407783E-3
1.828500E-7	5.279312E-3
1.829000E-7	5.149128E-3
1.829500E-7	4.969268E-3
1.830000E-7	4.876769E-3
1.830500E-7	4.830519E-3
1.831000E-7	4.765427E-3
1.831500E-7	4.705474E-3
1.832000E-7	4.695196E-3
1.832500E-7	4.702048E-3
1.833000E-7	4.726029E-3
1.833500E-7	4.785982E-3
1.834000E-7	4.844223E-3
1.834500E-7	4.888759E-3
1.835000E-7	4.926444E-3
1.835500E-7	4.967555E-3
1.836000E-7	5.036073E-3
1.836500E-7	5.123434E-3
1.837000E-7	5.181674E-3
1.837500E-7	5.233062E-3
1.838000E-7	5.265608E-3
1.838500E-7	5.320423E-3
1.839000E-7	5.347830E-3
1.839500E-7	5.395793E-3
1.840000E-7	5.447181E-3
1.840500E-7	5.435191E-3
1.841000E-7	5.359821E-3
1.841500E-7	5.315284E-3
1.842000E-7	5.243340E-3
1.842500E-7	5.171396E-3
1.843000E-7	5.104591E-3
1.843500E-7	5.060054E-3
1.844000E-7	5.090888E-3
1.844500E-7	5.120008E-3
1.845000E-7	5.178248E-3
1.845500E-7	5.251905E-3
1.846000E-7	5.337552E-3
1.846500E-7	5.421487E-3
1.847000E-7	5.500283E-3
1.847500E-7	5.529403E-3
1.848000E-7	5.553384E-3
1.848500E-7	5.517412E-3
1.849000E-7	5.460885E-3
1.849500E-7	5.447181E-3
1.850000E-7	5.411209E-3
1.850500E-7	5.352969E-3
1.851000E-7	5.238201E-3
1.851500E-7	5.150841E-3
1.852000E-7	5.089175E-3
1.852500E-7	5.032647E-3
1.853000E-7	4.989824E-3
1.853500E-7	4.976120E-3
1.854000E-7	4.974407E-3
1.854500E-7	5.000101E-3
1.855000E-7	5.058342E-3
1.855500E-7	5.099452E-3
1.856000E-7	5.121721E-3
1.856500E-7	5.123434E-3
1.857000E-7	5.056629E-3
1.857500E-7	4.967555E-3
1.858000E-7	4.847649E-3
1.858500E-7	4.708900E-3
1.859000E-7	4.539318E-3
1.859500E-7	4.410846E-3
1.860000E-7	4.265246E-3
1.860500E-7	4.171033E-3
1.861000E-7	4.076821E-3
1.861500E-7	4.003164E-3
1.862000E-7	4.039136E-3
1.862500E-7	4.112793E-3
1.863000E-7	4.208718E-3
1.863500E-7	4.323486E-3
1.864000E-7	4.469087E-3
1.864500E-7	4.546169E-3
1.865000E-7	4.630104E-3
1.865500E-7	4.698622E-3
1.866000E-7	4.743159E-3
1.866500E-7	4.753436E-3
1.867000E-7	4.773992E-3
1.867500E-7	4.808251E-3
1.868000E-7	4.833945E-3
1.868500E-7	4.854500E-3
1.869000E-7	4.892185E-3
1.869500E-7	4.876769E-3
1.870000E-7	4.885334E-3
1.870500E-7	4.928157E-3
1.871000E-7	4.921305E-3
1.871500E-7	4.962416E-3
1.872000E-7	4.974407E-3
1.872500E-7	4.965842E-3
1.873000E-7	4.957277E-3
1.873500E-7	4.964129E-3
1.874000E-7	4.972694E-3
1.874500E-7	4.986398E-3
1.875000E-7	4.996675E-3
1.875500E-7	5.000101E-3
1.876000E-7	5.053203E-3
1.876500E-7	5.060054E-3
1.877000E-7	5.022370E-3
1.877500E-7	5.018944E-3
1.878000E-7	4.943574E-3
1.878500E-7	4.861352E-3
1.879000E-7	4.796260E-3
1.879500E-7	4.714039E-3
1.880000E-7	4.660937E-3
1.880500E-7	4.640382E-3
1.881000E-7	4.616400E-3
1.881500E-7	4.570151E-3
1.882000E-7	4.621539E-3
1.882500E-7	4.643808E-3
1.883000E-7	4.693483E-3
1.883500E-7	4.710613E-3
1.884000E-7	4.738020E-3
1.884500E-7	4.693483E-3
1.885000E-7	4.691770E-3
1.885500E-7	4.691770E-3
1.886000E-7	4.681492E-3
1.886500E-7	4.707187E-3
1.887000E-7	4.724316E-3
1.887500E-7	4.738020E-3
1.888000E-7	4.777418E-3
1.888500E-7	4.835658E-3
1.889000E-7	4.904176E-3
1.889500E-7	4.994962E-3
1.890000E-7	5.125147E-3
1.890500E-7	5.248479E-3
1.891000E-7	5.411209E-3
1.891500E-7	5.609911E-3
1.892000E-7	5.712688E-3
1.892500E-7	5.801762E-3
1.893000E-7	5.830882E-3
1.893500E-7	5.830882E-3
1.894000E-7	5.729818E-3
1.894500E-7	5.592782E-3
1.895000E-7	5.378663E-3
1.895500E-7	5.188526E-3
1.896000E-7	4.996675E-3
1.896500E-7	4.845936E-3
1.897000E-7	4.702048E-3
1.897500E-7	4.618113E-3
1.898000E-7	4.587280E-3
1.898500E-7	4.588993E-3
1.899000E-7	4.674641E-3
1.899500E-7	4.762001E-3
1.900000E-7	4.839084E-3
1.900500E-7	4.948713E-3
1.901000E-7	5.005240E-3
1.901500E-7	5.085749E-3
1.902000E-7	5.080610E-3
1.902500E-7	5.027508E-3
1.903000E-7	4.955565E-3
1.903500E-7	4.845936E-3
1.904000E-7	4.720890E-3
1.904500E-7	4.590706E-3
1.905000E-7	4.513623E-3
1.905500E-7	4.441679E-3
1.906000E-7	4.448531E-3
1.906500E-7	4.486216E-3
1.907000E-7	4.592419E-3
1.907500E-7	4.678067E-3
1.908000E-7	4.756862E-3
1.908500E-7	4.842510E-3
1.909000E-7	4.888759E-3
1.909500E-7	4.892185E-3
1.910000E-7	4.897324E-3
1.910500E-7	4.917880E-3
1.911000E-7	4.856213E-3
1.911500E-7	4.780844E-3
1.912000E-7	4.676354E-3
1.912500E-7	4.542744E-3
1.913000E-7	4.441679E-3
1.913500E-7	4.357745E-3
1.914000E-7	4.218996E-3
1.914500E-7	4.104228E-3
1.915000E-7	3.979183E-3
1.915500E-7	3.874693E-3
1.916000E-7	3.807888E-3
1.916500E-7	3.775342E-3
1.917000E-7	3.804462E-3
1.917500E-7	3.890110E-3
1.918000E-7	3.934646E-3
1.918500E-7	4.010016E-3
1.919000E-7	4.090525E-3
1.919500E-7	4.171033E-3
1.920000E-7	4.246403E-3
1.920500E-7	4.374874E-3
1.921000E-7	4.489642E-3
1.921500E-7	4.624965E-3
1.922000E-7	4.750010E-3
1.922500E-7	4.784269E-3
1.923000E-7	4.823667E-3
1.923500E-7	4.907602E-3
1.924000E-7	4.979546E-3
1.924500E-7	5.041212E-3
1.925000E-7	5.113156E-3
1.925500E-7	5.203942E-3
1.926000E-7	5.282738E-3
1.926500E-7	5.340978E-3
1.927000E-7	5.359821E-3
1.927500E-7	5.394080E-3
1.928000E-7	5.416348E-3
1.928500E-7	5.382089E-3
1.929000E-7	5.296442E-3
1.929500E-7	5.169683E-3
1.930000E-7	5.044638E-3
1.930500E-7	4.847649E-3
1.931000E-7	4.633530E-3
1.931500E-7	4.455383E-3
1.932000E-7	4.302931E-3
1.932500E-7	4.224135E-3
1.933000E-7	4.159043E-3
1.933500E-7	4.164182E-3
1.934000E-7	4.224135E-3
1.934500E-7	4.328625E-3
1.935000E-7	4.467374E-3
1.935500E-7	4.630104E-3
1.936000E-7	4.801399E-3
1.936500E-7	4.988111E-3
1.937000E-7	5.113156E-3
1.937500E-7	5.238201E-3
1.938000E-7	5.318710E-3
1.938500E-7	5.335839E-3
1.939000E-7	5.294729E-3
1.939500E-7	5.164544E-3
1.940000E-7	5.042925E-3
1.940500E-7	4.929870E-3
1.941000E-7	4.827093E-3
1.941500E-7	4.715751E-3
1.942000E-7	4.650659E-3
1.942500E-7	4.571864E-3
1.943000E-7	4.551308E-3
1.943500E-7	4.542744E-3
1.944000E-7	4.582141E-3
1.944500E-7	4.640382E-3
1.945000E-7	4.667789E-3
1.945500E-7	4.686631E-3
1.946000E-7	4.734594E-3
1.946500E-7	4.809964E-3
1.947000E-7	4.827093E-3
1.947500E-7	4.827093E-3
1.948000E-7	4.760288E-3
1.948500E-7	4.720890E-3
1.949000E-7	4.672928E-3
1.949500E-7	4.648946E-3
1.950000E-7	4.654085E-3
1.950500E-7	4.695196E-3
1.951000E-7	4.760288E-3
1.951500E-7	4.818528E-3
1.952000E-7	4.924731E-3
1.952500E-7	4.981259E-3
1.953000E-7	5.097739E-3
1.953500E-7	5.188526E-3
1.954000E-7	5.272460E-3
1.954500E-7	5.272460E-3
1.955000E-7	5.231349E-3
1.955500E-7	5.149128E-3
1.956000E-7	5.053203E-3
1.956500E-7	4.947000E-3
1.957000E-7	4.782557E-3
1.957500E-7	4.638669E-3
1.958000E-7	4.477651E-3
1.958500E-7	4.362884E-3
1.959000E-7	4.326912E-3
1.959500E-7	4.357745E-3
1.960000E-7	4.424550E-3
1.960500E-7	4.511910E-3
1.961000E-7	4.630104E-3
1.961500E-7	4.765427E-3
1.962000E-7	4.856213E-3
1.962500E-7	4.912741E-3
1.963000E-7	4.895611E-3
1.963500E-7	4.881908E-3
1.964000E-7	4.864778E-3
1.964500E-7	4.794547E-3
1.965000E-7	4.715751E-3
1.965500E-7	4.626678E-3
1.966000E-7	4.582141E-3
1.966500E-7	4.499920E-3
1.967000E-7	4.419411E-3
1.967500E-7	4.390291E-3
1.968000E-7	4.434828E-3
1.968500E-7	4.487929E-3
1.969000E-7	4.525614E-3
1.969500E-7	4.604410E-3
1.970000E-7	4.715751E-3
1.970500E-7	4.760288E-3
1.971000E-7	4.840797E-3
1.971500E-7	4.899037E-3
1.972000E-7	4.921305E-3
1.972500E-7	4.914454E-3
1.973000E-7	4.909315E-3
1.973500E-7	4.907602E-3
1.974000E-7	4.888759E-3
1.974500E-7	4.885334E-3
1.975000E-7	4.883621E-3
1.975500E-7	4.868204E-3
1.976000E-7	4.842510E-3
1.976500E-7	4.760288E-3
1.977000E-7	4.720890E-3
1.977500E-7	4.695196E-3
1.978000E-7	4.679780E-3
1.978500E-7	4.612974E-3
1.979000E-7	4.582141E-3
1.979500E-7	4.558160E-3
1.980000E-7	4.537605E-3
1.980500E-7	4.566725E-3
1.981000E-7	4.614687E-3
1.981500E-7	4.666076E-3
1.982000E-7	4.696909E-3
1.982500E-7	4.743159E-3
1.983000E-7	4.746585E-3
1.983500E-7	4.748298E-3
1.984000E-7	4.700335E-3
1.984500E-7	4.650659E-3
1.985000E-7	4.600984E-3
1.985500E-7	4.551308E-3
1.986000E-7	4.465661E-3
1.986500E-7	4.403995E-3
1.987000E-7	4.388578E-3
1.987500E-7	4.427976E-3
1.988000E-7	4.469087E-3
1.988500E-7	4.510197E-3
1.989000E-7	4.518762E-3
1.989500E-7	4.551308E-3
1.990000E-7	4.549595E-3
1.990500E-7	4.496494E-3
1.991000E-7	4.417698E-3
1.991500E-7	4.359458E-3
1.992000E-7	4.320060E-3
1.992500E-7	4.294366E-3
1.993000E-7	4.296079E-3
1.993500E-7	4.362884E-3
1.994000E-7	4.424550E-3
1.994500E-7	4.501633E-3
1.995000E-7	4.573577E-3
1.995500E-7	4.607836E-3
1.996000E-7	4.635243E-3
1.996500E-7	4.618113E-3
1.997000E-7	4.537605E-3
1.997500E-7	4.462235E-3
1.998000E-7	4.407420E-3
1.998500E-7	4.301218E-3
1.999000E-7	4.171033E-3
1.999500E-7	4.097377E-3
2.000000E-7	4.032284E-3
2.000500E-7	4.008303E-3
